n v(n)    Re(T)       Im(T)        Mod(T) 
   
0  0  1469191.0  0.0  1469191.0  
1  0  9068.102  -8537.335  12454.579  
2  0  1811.1914  -1381.384  2277.8577  
3  0  4251.9263  -14250.246  14871.06  
4  0  5977.1406  -19633.873  20523.527  
5  0  8024.2144  -27645.646  28786.625  
6  0  6723.669  -42932.96  43456.26  
7  0  12760.7705  -62449.418  63739.84  
8  0  17775.363  -109033.26  110472.69  
9  0  22451.098  -261238.0  262200.97  
10  0  -54161.637  953245.9  954783.3  
11  0  -4940.9688  181866.44  181933.55  
12  0  1900.4077  104132.125  104149.47  
13  0  8819.108  72336.68  72872.305  
14  0  6847.82  57657.445  58062.668  
15  0  10987.762  46015.28  47308.953  
16  0  15177.678  37740.023  40677.65  
17  0  19136.365  37116.17  41758.96  
18  0  29501.908  23719.02  37854.383  
19  0  96629.44  36473.98  103284.07  
20  0  -120789.71  4849.984  120887.04  
21  0  -31807.234  4739.826  32158.453  
22  0  -24221.363  14152.958  28053.176  
23  0  -17340.887  9790.008  19913.578  
24  0  -13928.675  5867.6187  15114.13  
25  0  -9365.2295  4287.849  10300.153  
26  0  -9413.992  -4120.3687  10276.22  
27  0  -5520.8213  -13445.003  14534.358  
28  0  10165.6045  -43896.61  45058.316  
29  0  41331.566  -229921.58  233607.0  
30  0  -30208.926  138888.1  142135.44  
31  0  -14045.149  68403.57  69830.62  
32  0  -13806.628  48592.14  50515.53  
33  0  -6021.7783  38972.06  39434.543  
34  4095  -6994.418  34840.652  35535.797  
35  4095  -5654.431  31735.936  32235.729  
36  4095  -984.45874  26268.371  26286.812  
37  4095  -166.63013  31332.957  31333.4  
38  4095  4097.5312  22782.855  23148.396  
39  4095  145390.78  61679.426  157932.98  
40  4095  -29073.338  17880.809  34131.836  
41  4095  -10982.989  10768.728  15381.533  
42  4095  -13030.617  15528.601  20271.518  
43  4095  -12413.234  17190.148  21203.527  
44  4095  -13572.714  14934.04  20180.29  
45  4095  -12636.17  18215.19  22169.031  
46  4095  -14908.832  18516.287  23772.383  
47  4095  -23121.643  22849.52  32507.09  
48  4095  -12839.958  29132.553  31836.615  
49  4095  32451.566  -117044.73  121460.17  
50  4095  -7872.3076  -5150.3574  9407.412  
51  4095  -5688.699  6875.1006  8923.47  
52  4095  -12834.896  7250.1797  14741.088  
53  4095  -10105.316  7453.153  12556.549  
54  4095  -11951.425  7578.6533  14151.769  
55  4095  -16628.922  8744.239  18787.836  
56  4095  -16268.531  2962.6697  16536.098  
57  4095  -26130.28  4420.8867  26501.617  
58  4095  -62917.37  -13321.564  64312.203  
59  4095  107024.91  55828.94  120711.234  
60  4095  19567.514  26345.941  32817.62  
61  4095  14739.5625  15903.308  21683.402  
62  4095  8721.352  12770.2705  15464.21  
63  4095  5894.0645  15029.254  16143.683  
64  4095  2813.9333  11791.245  12122.363  
65  4095  1392.1987  13185.545  13258.839  
66  4095  1433.8506  15387.005  15453.668  
67  4095  -16498.111  20528.865  26336.705  
68  4095  -18849.84  45069.406  48852.508  
69  4095  11967.829  -19517.303  22894.41  
70  0  -1201.6797  -9142.076  9220.716  
71  0  2473.106  1799.6157  3058.5732  
72  0  -3427.5745  2718.564  4374.798  
73  0  -3383.4612  3563.933  4914.2065  
74  0  -2696.3499  3388.991  4330.769  
75  0  -8659.27  5916.725  10487.64  
76  0  -7871.9297  1767.1855  8067.851  
77  0  -15876.289  -3214.6892  16198.48  
78  0  -101696.016  -50703.88  113635.22  
79  0  29152.44  21931.049  36480.62  
80  0  9430.075  16969.234  19413.43  
81  0  8389.749  14442.567  16702.564  
82  0  7603.8105  9243.715  11969.302  
83  0  7165.6343  11754.443  13766.382  
84  0  6829.3184  9538.325  11731.122  
85  0  6112.1807  7320.4785  9536.675  
86  0  14286.053  9324.409  17059.775  
87  0  -2199.84  8632.783  8908.661  
88  0  -1075.981  14274.168  14314.664  
89  0  4341.837  12805.59  13521.638  
90  0  -761.4822  1631.7261  1800.6624  
91  0  3931.509  6765.247  7824.6616  
92  0  2424.477  7200.662  7597.8696  
93  0  1452.0457  8069.328  8198.933  
94  0  5830.081  8378.925  10207.655  
95  0  3018.758  12719.707  13073.02  
96  0  8083.1094  18844.488  20504.912  
97  0  22974.734  23169.156  32628.947  
98  0  -76416.96  -49870.344  91250.23  
99  0  -15053.94  -5325.2646  15968.08  
100  0  -10099.343  327.2273  10104.643  
101  0  -8430.03  6105.5557  10408.805  
102  0  -5939.376  3243.443  6767.282  
103  0  -4968.7627  6260.8022  7992.887  
104  0  -3701.0784  8326.816  9112.291  
105  0  -6198.9873  4884.2026  7891.95  
106  0  5683.7026  10055.888  11550.989  
107  0  -11373.155  16589.27  20113.492  
108  0  11090.424  -9187.219  14401.476  
109  0  6249.266  8766.78  10766.14  
110  0  1065.6527  -107.31372  1071.0425  
111  0  2416.108  1961.0803  3111.8184  
112  0  3380.3132  2663.6208  4303.649  
113  0  620.1633  2936.6868  3001.455  
114  0  5072.2256  2791.3281  5789.558  
115  3154  4541.3027  4079.147  6104.332  
116  4095  6698.4004  19798.793  20901.215  
117  4095  44865.074  48721.465  66231.836  
118  4095  -23968.02  -18254.385  30127.871  
119  4095  -13401.219  -6249.999  14786.992  
120  4095  -7840.965  -5410.7485  9526.643  
121  4095  -8714.756  701.6223  8742.954  
122  4095  -7315.0938  -931.3484  7374.1445  
123  4095  -7127.416  -454.4375  7141.8887  
124  4095  -5943.339  4729.432  7595.4463  
125  4095  -11137.696  -245.26587  11140.396  
126  4095  -1260.0681  4101.425  4290.6245  
127  4095  -36273.23  31491.104  48035.785  
128  4095  143.89844  -5360.331  5362.262  
129  4095  869.4597  7126.9043  7179.744  
130  4095  -740.3567  1670.2268  1826.9607  
131  4095  -1744.4717  441.06787  1799.3672  
132  4095  907.65247  449.22095  1012.7351  
133  4095  -2277.744  -1085.7947  2523.305  
134  4095  -564.05286  -3120.3635  3170.9343  
135  4095  1313.1603  -12526.071  12594.715  
136  4095  -7069.87  -1894.6765  7319.3486  
137  4095  30992.48  41162.113  51525.27  
138  4095  5964.3545  5818.633  8332.468  
139  4095  -1947.4447  3924.3809  4381.0166  
140  4095  1462.9357  -831.3491  1682.6533  
141  4095  -501.37683  1651.5054  1725.9342  
142  4095  -317.88745  596.7903  676.1739  
143  4095  83.87085  -3315.459  3316.5195  
144  4095  2555.4084  2211.8562  3379.707  
145  4095  933.69885  -4237.0728  4338.7305  
146  4095  18462.725  -12018.345  22029.816  
147  4095  -40127.402  28453.945  49191.824  
148  4095  -13685.131  3552.9  14138.809  
149  4095  -9032.567  9083.759  12810.229  
150  4095  -6130.4077  7745.0986  9877.674  
151  4095  -7622.2485  5338.458  9305.794  
152  0  -4093.5044  5838.128  7130.2534  
153  0  -5086.081  4746.0996  6956.5566  
154  0  -6958.475  5054.249  8600.338  
155  0  435.87012  -12473.372  12480.985  
156  0  -12680.26  -14745.391  19447.766  
157  0  5133.3447  15332.652  16169.151  
158  0  7611.8457  7855.4053  10938.354  
159  0  -1446.5725  6994.963  7142.974  
160  0  986.23987  2832.852  2999.6199  
161  0  78.163574  2971.298  2972.326  
162  0  -788.82715  4115.2354  4190.1562  
163  0  -416.9126  -2184.1077  2223.5427  
164  0  937.5082  2313.8452  2496.5579  
165  0  4188.2754  402.18652  4207.5415  
166  0  45477.984  -21568.188  50333.227  
167  0  -15205.052  11238.535  18907.625  
168  0  -9165.121  2202.5928  9426.073  
169  0  -8870.922  3874.6309  9680.187  
170  0  -5792.81  6477.8223  8690.157  
171  0  -8245.763  4946.9214  9615.854  
172  0  -6720.2017  6449.285  9314.204  
173  0  -4868.45  7422.3057  8876.51  
174  0  -12080.876  14540.301  18904.178  
175  0  -1040.9547  -938.81177  1401.7683  
176  0  -6679.478  -2825.0933  7252.35  
177  0  -8328.385  2494.3481  8693.893  
178  0  2305.3818  4266.383  4849.413  
179  0  -3754.6377  5440.9404  6610.6836  
180  0  -3046.8555  4053.48  5070.9  
181  0  -2749.6218  2826.5498  3943.324  
182  0  -5129.6377  6319.073  8139.0337  
183  0  -6187.576  601.3291  6216.727  
184  0  -12448.069  858.697  12477.651  
185  0  -17473.244  8577.719  19465.137  
186  0  43636.035  -14778.85  46070.793  
187  0  7329.1055  -132.47656  7330.3027  
188  0  3432.4146  -618.2471  3487.6494  
189  0  -656.71954  -2591.9336  2673.8362  
190  0  685.1831  725.677  998.03955  
191  0  -1909.7074  -416.84424  1954.6718  
192  0  -4106.2583  -364.25757  4122.383  
193  0  838.9773  -235.64087  871.44104  
194  0  -11280.271  9868.428  14987.675  
195  0  -4465.021  -4194.384  6126.114  
196  0  -86.49736  10675.925  10676.275  
197  4095  -9584.201  3563.5662  10225.259  
198  4095  -62.35506  4923.61  4924.005  
199  4095  -2112.4395  5432.958  5829.188  
200  4095  -2883.4736  6001.597  6658.347  
201  4095  -822.507  3809.167  3896.9565  
202  4095  -2647.1226  8055.1846  8478.989  
203  4095  -1843.0327  6493.6753  6750.155  
204  4095  -14171.059  -1777.4031  14282.089  
205  4095  -39380.75  10249.627  40692.73  
206  4095  15058.785  -1864.7126  15173.799  
207  4095  6925.2725  -691.3252  6959.6934  
208  4095  5275.1177  2488.477  5832.614  
209  4095  1999.1495  -1526.6748  2515.4194  
210  4095  3009.675  420.63794  3038.9275  
211  4095  2903.7842  103.28833  2905.6206  
212  4095  -2119.8733  -2019.0393  2927.5217  
213  4095  6144.8657  -4004.1814  7334.3604  
214  4095  -4660.7783  4476.155  6462.106  
215  4095  -4961.6934  -21681.488  22241.973  
216  4095  2435.2073  5747.7144  6242.3115  
217  4095  -7221.77  1003.20337  7291.1167  
218  4095  -2241.8003  2630.6934  3456.3298  
219  4095  -894.65857  2704.168  2848.322  
220  4095  -2617.928  4768.9834  5440.2896  
221  4095  637.936  3005.9365  3072.884  
222  4095  1100.8752  6070.1113  6169.1313  
223  4095  8605.486  13820.865  16280.992  
224  4095  2043.4215  -557.2986  2118.054  
225  4095  -34019.133  5770.167  34505.016  
226  4095  -7289.9224  5303.79  9015.162  
227  4095  -2720.9658  713.6665  2813.001  
228  4095  -958.41614  5568.0693  5649.952  
229  4095  -1782.186  2547.6738  3109.1523  
230  4095  -1001.69543  3066.4126  3225.8767  
231  4095  2215.1187  5277.316  5723.357  
232  4095  -4381.4756  3261.3123  5462.004  
233  4095  3268.2458  3097.8176  4503.0996  
234  0  -1326.1755  17119.182  17170.473  
235  0  -2488.4219  -25833.637  25953.209  
236  0  3217.666  -4225.8525  5311.422  
237  0  -3480.4077  -5142.775  6209.7803  
238  0  -3940.068  -3132.546  5033.585  
239  0  -1384.5684  -3396.0103  3667.4126  
240  0  -4271.817  -1323.7344  4472.2134  
241  0  -2921.8257  -2004.615  3543.3806  
242  0  -2879.7104  -4162.551  5061.577  
243  0  8466.976  14014.063  16373.26  
244  0  12947.289  2656.4858  13217.004  
245  0  -11727.542  1138.0276  11782.629  
246  0  -9476.356  6212.538  11331.238  
247  0  -5074.642  -117.398926  5076.0  
248  0  -3466.4214  3829.898  5165.675  
249  0  -3235.2512  2905.48  4348.409  
250  0  -3733.664  1276.2954  3945.7795  
251  0  1723.9407  5144.093  5425.28  
252  0  -3430.296  2964.0527  4533.4907  
253  0  -2548.4365  4608.627  5266.305  
254  0  -5619.8066  35415.316  35858.426  
255  0  -2561.9958  -8471.967  8850.878  
256  0  1790.6259  -1583.8413  2390.5845  
257  0  305.1847  -2942.878  2958.66  
258  0  -3181.1985  -2517.6475  4056.9165  
259  0  -484.37378  -3829.9094  3860.4175  
260  0  -2908.362  -3794.6643  4781.0093  
261  0  -4902.9224  -3155.6428  5830.6714  
262  0  -7782.0186  -15032.778  16927.617  
263  0  287.97546  5815.7515  5822.8765  
264  0  4773.711  1709.2473  5070.4873  
265  0  1136.535  -2502.3826  2748.387  
266  0  -5477.172  4321.665  6976.833  
267  0  -3578.0085  -898.6758  3689.141  
268  0  -3086.1797  463.93457  3120.8557  
269  0  -2544.767  1572.493  2991.4167  
270  0  -4365.753  -2436.1543  4999.4644  
271  0  1393.6028  704.8406  1561.707  
272  0  4456.3965  -4197.2383  6121.787  
273  0  59.615234  -10149.154  10149.329  
274  0  -9194.259  33413.34  34655.242  
275  0  -4793.841  7788.501  9145.581  
276  0  -2471.1997  6272.076  6741.3477  
277  0  915.395  4602.5684  4692.716  
278  0  -2432.144  3931.4944  4622.983  
279  4095  95.42871  2711.6233  2713.302  
280  4095  1181.3201  836.4939  1447.4941  
281  4095  -1980.0121  5332.3125  5688.058  
282  4095  -5186.5103  -13800.075  14742.522  
283  4095  1322.3853  1346.498  1887.2625  
284  4095  -6772.9395  -768.75684  6816.428  
285  4095  1408.4583  -4964.4077  5160.339  
286  4095  -4635.993  1413.0676  4846.565  
287  4095  -4241.545  -541.15063  4275.927  
288  4095  -4442.0527  -1446.0146  4671.487  
289  4095  -4226.629  1798.9607  4593.5444  
290  4095  -7349.034  -2284.3103  7695.8677  
291  4095  -6832.641  218.42993  6836.132  
292  4095  7879.5293  -4753.7793  9202.467  
293  4095  8244.33  -24746.396  26083.578  
294  4095  -5807.1475  12199.569  13511.197  
295  4095  -3906.481  7378.9585  8349.229  
296  4095  -5629.7236  5344.706  7762.7104  
297  4095  -1085.4343  5422.1025  5529.68  
298  4095  -3345.9927  5331.702  6294.6577  
299  4095  -2973.2334  5747.5493  6471.0464  
300  4095  1908.2871  2762.4216  3357.4592  
301  4095  -1101.2439  12440.633  12489.278  
302  4095  -3124.1003  -4850.044  5769.1357  
303  4095  11692.588  6746.01  13499.083  
304  4095  -6328.074  2102.1682  6668.106  
305  4095  1807.456  -2927.9019  3440.8584  
306  4095  -1938.9412  79.57324  1940.5734  
307  4095  -2765.9722  933.79175  2919.344  
308  4095  -3284.061  -1785.2756  3737.9495  
309  4095  -3788.3477  2134.9258  4348.504  
310  4095  -7012.704  306.3125  7019.3906  
311  4095  -19446.238  2547.2766  19612.363  
312  4095  -1088.7397  4400.273  4532.9634  
313  4095  8975.213  -21037.465  22872.021  
314  4095  -1623.7571  -4740.4775  5010.86  
315  4095  -598.33154  473.0288  762.72986  
316  0  -5154.938  -671.44336  5198.4824  
317  0  -2405.3276  475.9242  2451.9595  
318  0  -3281.018  888.3484  3399.1533  
319  0  -7027.3906  2601.5928  7493.4976  
320  0  -835.08325  -1994.3062  2162.0872  
321  0  -4378.401  7164.1143  8396.126  
322  0  -11300.478  -5042.159  12374.335  
323  0  14243.742  10588.654  17748.346  
324  0  -1333.3369  6700.2793  6831.6567  
325  0  3404.0254  2375.1233  4150.735  
326  0  2483.761  1294.0691  2800.6577  
327  0  1453.2202  3481.9128  3773.005  
328  0  1926.0925  -262.2744  1943.8673  
329  0  2085.516  1454.2883  2542.5051  
330  0  4609.6113  2335.0872  5167.3154  
331  0  -20540.84  1379.2566  20587.094  
332  0  -10402.8  10031.397  14451.546  
333  0  1826.1431  -5662.169  5949.366  
334  0  -2272.7239  -7069.9727  7426.29  
335  0  457.14404  -1020.0708  1117.8217  
336  0  -3284.9814  -2063.8032  3879.4827  
337  0  -2618.0786  -1425.2274  2980.8738  
338  0  -877.15234  -907.13  1261.8562  
339  0  -7672.0195  1742.9888  7867.5215  
340  0  -2210.7974  -1834.2023  2872.616  
341  0  -3586.4521  -17.324219  3586.494  
342  0  -21444.742  -15082.755  26217.674  
343  0  4135.6865  3633.0256  5504.796  
344  0  -2717.611  4258.2  5051.5024  
345  0  -619.49927  3923.0818  3971.6936  
346  0  1140.9631  1292.8446  1724.3097  
347  0  654.48975  4353.107  4402.033  
348  0  2430.526  2197.6099  3276.7278  
349  0  3392.436  254.64307  3401.9795  
350  0  17721.438  4771.831  18352.648  
351  0  -8659.902  -867.354  8703.23  
352  0  -7127.2324  5215.8364  8831.896  
353  0  -1633.4316  4401.786  4695.0845  
354  0  -3237.2202  -3867.1172  5043.232  
355  0  -80.650635  74.205444  109.59458  
356  0  -1337.7983  -478.24634  1420.7125  
357  0  -2539.7324  -965.8241  2717.1782  
358  0  2092.8555  -388.92322  2128.6863  
359  0  -4669.6396  2689.4795  5388.769  
360  0  -2355.1704  7772.3535  8121.349  
361  4095  4133.4062  6339.6177  7568.0776  
362  4095  -19697.316  -17481.434  26335.998  
363  4095  -5263.9653  -4827.205  7142.2153  
364  4095  -5933.6455  -2603.7844  6479.8022  
365  4095  -6591.033  535.4468  6612.747  
366  4095  -4261.5723  -1729.0988  4598.9976  
367  4095  -5035.4424  1090.0293  5152.072  
368  4095  -4073.0312  3013.6912  5066.746  
369  4095  -6540.9243  -2578.824  7030.9336  
370  4095  16032.512  6509.948  17303.781  
371  4095  -2404.0715  1805.5574  3006.5925  
372  4095  609.1272  -1615.2314  1726.2701  
373  4095  350.98584  6009.829  6020.0693  
374  4095  -1363.2332  -1818.8091  2272.9873  
375  4095  79.354004  -569.11536  574.62103  
376  4095  948.656  -326.4383  1003.24976  
377  4095  -1911.1619  -2435.1196  3095.5366  
378  4095  3853.123  -3126.9417  4962.2896  
379  4095  916.6763  -4852.639  4938.4614  
380  4095  -4150.4805  11521.745  12246.514  
381  4095  9975.758  18528.146  21043.002  
382  4095  -7951.958  -6422.012  10221.344  
383  4095  -5555.331  -3750.6748  6702.9297  
384  4095  -3547.507  -4378.9766  5635.6226  
385  4095  -6266.6006  -1328.679  6405.909  
386  4095  -4985.1895  -3273.4788  5963.8726  
387  4095  -5919.698  -3319.9873  6787.131  
388  4095  -6449.258  2699.5684  6991.466  
389  4095  -14944.418  -6427.8477  16268.155  
390  4095  5221.9595  3318.0483  6186.9463  
391  4095  -9796.314  6437.2295  11722.018  
392  4095  -831.4883  -3264.9563  3369.171  
393  4095  -1111.9482  5297.02  5412.4717  
394  4095  -1632.4521  892.3969  1860.4495  
395  4095  -1796.9143  -176.10278  1805.523  
396  4095  715.08936  1180.9554  1380.5826  
397  1244  -2469.7021  -1715.2284  3006.8982  
398  0  1571.2336  -3522.034  3856.6174  
399  0  7631.8726  -17570.994  19156.861  
400  0  -5615.0107  8.230299  5615.0166  
401  0  7596.549  17594.654  19164.535  
402  0  1556.4612  3511.9438  3841.3958  
403  0  -2475.0742  1692.2878  2998.3047  
404  0  710.44946  -1186.287  1382.7563  
405  0  -1800.3481  166.27937  1808.0106  
406  0  -1633.0713  -905.6451  1867.3818  
407  0  -1105.7029  -5302.7974  5416.8477  
408  0  -847.1421  3260.877  3369.1199  
409  0  -9786.508  -6461.887  11727.393  
410  0  5223.417  -3293.9727  6175.3013  
411  0  -14972.282  6393.7773  16280.345  
412  0  -6440.746  -2713.6912  6989.0864  
413  0  -5921.966  3313.2778  6785.83  
414  0  -4989.07  3260.7234  5960.129  
415  0  -6265.409  1305.7268  6400.0215  
416  0  -3553.7444  4367.753  5630.8403  
417  0  -5556.828  3726.6543  6690.761  
418  0  -7951.475  6381.5957  10195.623  
419  0  10023.261  -18524.219  21062.11  
420  0  -4134.672  -11519.121  12238.695  
421  0  914.05444  4862.644  4947.808  
422  0  3848.1055  3132.9685  4962.1978  
423  0  -1915.2446  2423.5583  3088.98  
424  0  953.3965  329.16052  1008.6186  
425  0  78.387695  569.1195  574.4925  
426  0  -1356.1597  1810.9792  2262.4797  
427  0  365.6599  -6015.6255  6026.729  
428  0  601.9365  1610.4711  1719.286  
429  0  -2394.529  -1812.0494  3002.8809  
430  0  16038.409  -6479.6973  17297.893  
431  0  -6560.698  2562.575  7043.405  
432  0  -4077.7112  -3023.4873  5076.338  
433  0  -5047.158  -1092.2983  5164.0024  
434  0  -4278.0107  1716.2338  4609.4287  
435  0  -6594.5156  -554.79016  6617.8115  
436  0  -5940.877  2594.876  6482.8545  
437  0  -5284.631  4818.2812  7151.445  
438  0  -19728.604  17428.846  26324.56  
439  0  4160.64  -6349.979  7591.651  
440  0  -2336.0144  -7788.0244  8130.823  
441  0  -4663.4033  -2705.9983  5391.6377  
442  0  2096.9265  390.51807  2132.9805  
443  4095  -2536.4043  954.5139  2710.0635  
444  4095  -1337.6211  472.42224  1418.5955  
445  4095  -78.36279  -80.479126  112.32817  
446  4095  -3240.4124  3850.7422  5032.7417  
447  4095  -1630.6565  -4417.073  4708.458  
448  4095  -7110.5283  -5238.5  8831.846  
449  4095  -8644.987  844.72314  8686.159  
450  4095  17750.152  -4727.637  18368.953  
451  4095  3393.0032  -254.48999  3402.5337  
452  4095  2431.9175  -2194.4873  3275.6675  
453  4095  664.15894  -4353.8643  4404.23  
