n v(n)    Re(T)       Im(T)        Mod(T) 
   
0  4095  1128991.0  0.0  1128991.0  
1  4095  -62155.223  1908.1741  62184.504  
2  0  -61543.44  10915.701  62503.984  
3  0  -62813.812  17499.514  65205.89  
4  0  -73640.87  21890.188  76825.5  
5  0  -87706.35  47745.67  99860.17  
6  0  -112699.51  61881.977  128571.22  
7  0  -178058.7  109109.53  208829.58  
8  0  -524175.84  371739.94  642612.56  
9  0  440762.53  -351799.66  563945.56  
10  0  141965.88  -129704.58  192295.58  
11  0  78517.85  -83128.4  114347.65  
12  0  47138.13  -64988.85  80284.2  
13  0  40327.0  -56302.477  69254.86  
14  0  34758.68  -45208.48  57026.07  
15  0  29502.188  -41636.84  51029.457  
16  0  30097.678  -47528.78  56257.047  
17  0  -91441.17  355184.9  366766.7  
18  0  7820.536  1137.833  7902.876  
19  0  12311.1455  -8400.8  14904.286  
20  0  13236.975  -12502.927  18208.258  
21  0  364.84595  -6610.868  6620.928  
22  0  10557.729  -5082.1387  11717.242  
23  0  6927.4673  -5507.0547  8849.715  
24  0  6345.4395  2816.8281  6942.5586  
25  0  28088.764  51718.535  58853.934  
26  0  -15283.535  -61396.4  63270.09  
27  0  -8092.409  -26944.309  28133.305  
28  0  -5797.964  -19139.982  19998.883  
29  0  -7060.41  -18442.139  19747.451  
30  0  -15735.371  -15801.445  22299.945  
31  0  -6737.4077  -18910.58  20074.928  
32  0  -11354.461  -21710.746  24500.617  
33  0  -28441.19  -30189.01  41476.227  
34  0  211552.19  123036.34  244728.97  
35  0  20113.459  1366.1196  20159.799  
36  0  8151.533  -5809.0176  10009.6045  
37  0  3003.881  -9021.231  9508.203  
38  0  1973.9272  2617.16  3278.0962  
39  0  -5320.357  905.9944  5396.946  
40  0  -12036.249  148.91187  12037.171  
41  0  -22934.049  1772.5491  23002.445  
42  0  -89040.78  3024.462  89092.13  
43  0  53064.16  -8667.428  53767.363  
44  0  25176.031  -2849.1714  25336.738  
45  0  17360.287  -3643.0405  17738.414  
46  0  5785.801  -7963.44  9843.366  
47  0  9024.519  4767.609  10206.47  
48  0  6892.403  -2926.6006  7488.0044  
49  0  1417.927  -49.327637  1418.7848  
50  0  -7408.2627  12417.469  14459.457  
51  0  70311.664  -58677.484  91579.35  
52  0  9901.466  -9900.406  14002.037  
53  0  6542.547  -4364.9443  7864.964  
54  0  5766.4834  -3690.7354  6846.448  
55  0  6794.671  -2794.356  7346.8345  
56  0  10847.869  9630.998  14506.288  
57  0  7132.0723  11969.514  13933.259  
58  0  2765.9766  22913.262  23079.605  
59  0  -18616.568  118226.08  119682.84  
60  0  17576.785  -59122.695  61680.113  
61  0  11123.249  -29042.316  31099.562  
62  426  7172.787  -20499.123  21717.8  
63  4095  -3693.0107  -11078.94  11678.238  
64  4095  4444.2266  -15312.099  15944.012  
65  4095  3182.6787  -15379.248  15705.117  
66  4095  3048.1252  -13758.447  14092.052  
67  4095  5641.034  -16848.48  17767.74  
68  4095  23264.293  26100.406  34963.676  
69  4095  8770.619  3994.7568  9637.522  
70  4095  9246.874  -1205.2703  9325.093  
71  4095  8184.0054  -6806.4746  10644.531  
72  4095  2397.9966  1801.1035  2999.06  
73  4095  14112.12  -3519.5593  14544.389  
74  4095  11128.328  -2708.207  11453.125  
75  4095  12924.322  2187.1887  13108.085  
76  4095  70752.11  30449.922  77026.35  
77  4095  -20458.72  -18590.473  27643.533  
78  4095  -8430.994  -8437.777  11928.024  
79  4095  -4201.3394  -4729.8633  6326.362  
80  4095  -3089.3164  2039.4353  3701.7795  
81  4095  -9559.441  3175.7905  10073.161  
82  4095  -8050.915  -2019.2239  8300.2705  
83  4095  -11690.457  -2553.2969  11966.04  
84  4095  -30298.918  -1231.185  30323.922  
85  4095  85029.66  -18594.979  87039.164  
86  4095  22232.207  -7635.3896  23506.812  
87  4095  11645.519  -8179.455  14231.008  
88  4095  3044.489  -10179.746  10625.26  
89  4095  13059.552  728.25024  13079.841  
90  4095  8851.225  -3689.4268  9589.372  
91  4095  5709.747  -315.26025  5718.444  
92  4095  5559.412  3985.389  6840.35  
93  4095  2617.353  959.44025  2787.6626  
94  4095  2496.4326  -1425.1093  2874.563  
95  4095  7145.9175  -496.6775  7163.157  
96  4095  8450.752  -1947.1606  8672.176  
97  0  2807.6033  -360.94775  2830.71  
98  0  11216.094  8291.277  13947.977  
99  0  5410.194  3463.6787  6423.9604  
100  0  2366.6125  7881.1406  8228.805  
101  0  1309.0085  30814.896  30842.686  
102  0  12734.594  -65409.492  66637.62  
103  0  4077.6885  -17356.627  17829.191  
104  0  2286.2375  -8894.687  9183.808  
105  0  -1587.5637  -4651.4277  4914.8896  
106  0  5277.9873  -10034.684  11338.078  
107  0  10355.977  -5700.413  11821.208  
108  0  10979.895  -2832.3877  11339.334  
109  0  13606.367  511.7207  13615.986  
110  0  36811.06  47638.266  60203.477  
111  0  1589.4287  -11367.023  11477.608  
112  0  4441.3906  -10759.81  11640.424  
113  0  3690.8447  -10547.503  11174.621  
114  0  -85.4541  3619.4312  3620.4397  
115  0  6948.301  -6107.0137  9250.648  
116  0  2234.6453  -4817.1016  5310.189  
117  0  3175.9724  -2205.1763  3866.4717  
118  0  14387.403  -2199.6414  14554.58  
119  0  -7760.357  -10514.131  13067.902  
120  0  2475.8726  -1469.137  2878.9421  
121  0  4763.8203  -1690.1493  5054.759  
122  0  2314.2852  -2692.3933  3550.3376  
123  0  269.85913  1923.9165  1942.7504  
124  0  6123.4707  -8019.952  10090.418  
125  0  5238.3955  -7387.315  9056.115  
126  0  5756.091  -5325.3594  7841.6855  
127  0  67531.1  -20227.982  70495.54  
128  0  -4043.3992  -3601.6548  5414.886  
129  0  -2379.425  -3368.9963  4124.536  
130  0  -1399.8987  -3069.952  3374.066  
131  0  9585.111  5012.9478  10816.839  
132  0  2704.7563  5010.5024  5693.93  
133  0  401.8584  5148.576  5164.2354  
134  0  -971.9498  6743.756  6813.4375  
135  0  -11245.643  12492.311  16808.4  
136  0  19150.686  -23479.158  30298.838  
137  0  11778.451  -10194.106  15577.282  
138  0  7277.1924  -8377.754  11097.04  
139  0  -1971.2888  -4792.424  5182.0176  
140  0  11899.02  -1850.9619  12042.123  
141  0  4447.905  -6945.52  8247.673  
142  0  3929.34  -3468.6687  5241.3145  
143  0  7603.844  714.7986  7637.3677  
144  0  6125.8164  -31253.324  31848.014  
145  0  2126.8901  1567.0852  2641.8586  
146  0  4856.43  333.86597  4867.8926  
147  0  5198.84  -2142.5012  5623.0107  
148  0  7558.3926  -3329.5266  8259.24  
149  0  16113.101  726.0715  16129.451  
150  0  11817.744  1777.9061  11950.732  
151  0  11958.309  6105.9434  13426.977  
152  0  25450.398  27844.293  37723.035  
153  0  -15892.479  -32589.098  36257.69  
154  0  -3606.7183  -13418.145  13894.424  
155  0  -1677.8522  -6746.67  6952.1753  
156  0  -2806.4558  4777.3223  5540.668  
157  4095  719.09155  -8668.217  8697.993  
158  4095  977.7329  -7012.696  7080.527  
159  4095  3647.2415  -5889.266  6927.18  
160  4095  7775.1494  -8139.4585  11256.275  
161  4095  22949.617  675.6587  22959.56  
162  4095  7511.831  -1870.1577  7741.1304  
163  4095  5649.433  -5702.0957  8026.8296  
164  4095  1914.6528  -7785.457  8017.433  
165  4095  6037.0913  2611.4937  6577.718  
166  4095  8458.983  -9582.341  12781.849  
167  4095  5821.511  -5433.074  7962.932  
168  4095  8418.406  -2871.9624  8894.814  
169  4095  28543.492  -12608.275  31204.16  
170  4095  -17056.525  2372.9321  17220.797  
171  4095  -1978.2666  1095.9819  2261.5735  
172  4095  2835.4883  326.78638  2854.257  
173  4095  6895.812  3750.9766  7849.971  
174  4095  1469.4814  5209.5415  5412.827  
175  4095  164.54175  -1814.6292  1822.0739  
176  4095  -467.24146  -2438.4375  2482.7993  
177  4095  -2456.2803  -1096.4546  2689.8933  
178  4095  27289.104  -41030.355  49276.617  
179  4095  4348.046  -7416.532  8597.119  
180  4095  264.66675  -4703.9033  4711.3433  
181  4095  -3641.4932  -2290.0938  4301.744  
182  4095  14059.161  -3646.131  14524.266  
183  4095  5580.3433  -3193.8555  6429.6924  
184  4095  6032.1104  561.25073  6058.1646  
185  4095  8246.232  2144.7715  8520.587  
186  4095  3061.3557  41.621338  3061.6387  
187  4095  2538.5798  -2642.0732  3664.0056  
188  4095  6245.3574  -5177.395  8112.3306  
189  4095  5299.797  -6347.116  8268.841  
190  4095  2475.8433  -466.886  2519.4807  
191  0  12583.929  -2623.0374  12854.399  
192  0  3387.1035  -2650.9006  4301.133  
193  0  3402.5232  119.05469  3404.6055  
194  0  9940.621  4061.4502  10738.311  
195  0  -19817.463  -31013.338  36804.332  
196  0  -57.778076  -2826.9521  2827.5425  
197  0  2384.4644  -151.6399  2389.2812  
198  0  1719.5823  1980.5178  2622.8638  
199  0  3607.94  -9625.712  10279.667  
200  0  9467.882  -8146.5117  12490.254  
201  0  10426.938  -6182.453  12122.037  
202  0  13284.269  -5124.659  14238.466  
203  0  31938.12  3360.5325  32114.43  
204  0  -9009.633  -6529.356  11126.813  
205  0  -3490.252  -6782.8105  7628.131  
206  0  -2150.997  -4685.855  5155.9697  
207  0  6086.69  7712.991  9825.377  
208  0  1423.6559  -6733.1846  6882.047  
209  0  -168.5763  -2006.9734  2014.0408  
210  0  2366.6965  -1726.9341  2929.7703  
211  0  6268.632  -8566.741  10615.31  
212  0  -3683.6973  -1725.6343  4067.8545  
213  0  6215.8647  -2065.3909  6550.024  
214  0  5447.2764  -3883.2927  6689.752  
215  0  1918.3765  -2749.4116  3352.5264  
216  0  4149.644  -97.94214  4150.8  
217  0  1200.6128  -10574.508  10642.447  
218  0  1738.0366  -8214.373  8396.231  
219  0  4700.0273  -7779.7524  9089.269  
220  0  18931.902  -32784.61  37858.254  
221  0  -5381.6963  7973.0127  9619.334  
222  0  -910.6272  3116.3052  3246.629  
223  0  1818.2043  963.6328  2057.779  
224  0  15391.1875  -1544.0472  15468.443  
225  0  6020.2607  3130.0962  6785.355  
226  0  4153.3447  2717.2993  4963.2637  
227  0  3557.1948  2379.3743  4279.6094  
228  0  -311.203  3907.1333  3919.5073  
229  0  -1607.7869  -23156.184  23211.932  
230  0  2049.4482  -9430.885  9651.001  
231  0  -111.34204  -5178.0234  5179.22  
232  0  -3095.728  2620.5156  4055.9382  
233  0  9276.958  -8501.267  12583.063  
234  0  -120.92529  -5098.7407  5100.1743  
235  0  2729.6428  -2757.9512  3880.3665  
236  0  6946.2363  -3796.198  7915.89  
237  0  -7490.9814  -13214.206  15189.801  
238  0  6389.1567  3499.1926  7284.6187  
239  0  5859.256  -1768.0325  6120.1978  
240  0  3746.5415  -4416.4004  5791.473  
241  0  5261.4336  -6631.265  8465.008  
242  0  11766.914  -7989.523  14222.966  
243  0  7270.6504  -3584.702  8106.3213  
244  0  8174.9453  -1019.8738  8238.317  
245  0  17294.934  949.1023  17320.957  
246  0  -26188.373  -6546.297  26994.164  
247  0  -4498.122  -1851.167  4864.1465  
248  0  648.7634  934.3723  1137.5173  
249  0  6301.3223  7795.9717  10024.163  
250  0  -3234.7761  -8022.1006  8649.732  
251  4095  23.75  -5720.436  5720.4854  
252  4095  2871.3923  -6834.1943  7412.9014  
253  4095  4700.392  -10710.704  11696.703  
254  4095  13583.22  -10066.177  16906.56  
255  4095  2722.939  -2769.2378  3883.6934  
256  4095  -431.8101  -4467.7466  4488.5654  
257  4095  -2784.1492  -3073.2273  4146.8315  
258  4095  9232.364  479.11572  9244.788  
259  4095  -16.920898  -8833.284  8833.301  
260  4095  1752.5029  -3014.2854  3486.715  
261  4095  4829.4775  -2970.597  5669.9473  
262  4095  6287.738  -14712.507  15999.797  
263  4095  -5842.4736  12794.449  14065.292  
264  4095  3708.671  875.31665  3810.5667  
265  4095  5450.7393  -2440.5723  5972.1816  
266  4095  9002.596  -1894.2302  9199.72  
267  4095  2802.2617  2090.6042  3496.183  
268  4095  -2412.958  -2970.587  3827.1077  
269  4095  -2522.6118  -3432.465  4259.74  
270  4095  -2475.7505  -4505.204  5140.6426  
271  4095  -5691.3984  -31236.973  31751.229  
272  4095  809.2971  970.16724  1263.4026  
273  4095  -18.865112  2166.8916  2166.9736  
274  4095  -12.76416  3447.658  3447.6816  
275  4095  12128.541  -12426.027  17363.975  
276  4095  4162.063  -2415.053  4811.99  
277  4095  6562.472  -892.2583  6622.8516  
278  4095  7598.1787  -1704.5261  7787.023  
279  4095  900.8396  -87.42804  905.0722  
280  4095  -419.97363  -2649.9878  2683.0605  
281  4095  761.6079  -6119.534  6166.745  
282  4095  -319.14624  -4875.1226  4885.5576  
283  4095  2514.6287  1715.9126  3044.292  
284  4095  5893.715  -8033.761  9963.795  
285  4095  -748.3119  -732.7009  1047.2924  
286  0  1265.335  203.9856  1281.6719  
287  0  4570.833  -2833.718  5377.962  
288  0  -22493.643  -3413.318  22751.148  
289  0  5414.413  800.73914  5473.3037  
290  0  5661.0303  -394.68494  5674.7725  
291  0  4392.616  63.065918  4393.069  
292  0  -3217.7832  -11176.505  11630.494  
293  0  3490.8972  -10843.264  11391.345  
294  0  4675.3784  -8520.18  9718.674  
295  0  6549.5146  -8257.208  10539.337  
296  0  15215.635  -9270.176  17817.174  
297  0  -10671.356  6428.522  12458.079  
298  0  -4175.5923  1265.2571  4363.0776  
299  0  -107.00659  1516.6968  1520.4669  
300  0  14002.172  3647.999  14469.579  
301  0  -4477.327  -3695.5042  5805.4463  
302  0  -418.03583  404.55835  581.74  
303  0  1239.4187  -1997.2734  2350.5872  
304  0  -1362.5754  -8256.081  8367.765  
305  0  -574.197  558.05176  800.7022  
306  0  4303.088  -4846.4185  6481.075  
307  0  1331.3474  -4341.6064  4541.149  
308  0  -496.67065  -637.40186  808.06116  
309  0  2848.638  -2006.8713  3484.576  
310  0  -5857.944  -6243.831  8561.597  
311  0  -2217.573  -4236.875  4782.127  
312  0  619.023  -5926.2715  5958.513  
313  0  -4361.5933  -20136.559  20603.506  
314  0  5111.0327  13309.281  14256.915  
315  0  4369.581  3202.9224  5417.744  
316  0  4714.8906  -1505.6875  4949.4736  
317  0  11900.479  -12079.414  16956.816  
318  0  4869.9893  1979.7021  5256.997  
319  0  2544.788  1348.396  2879.951  
320  0  1027.8204  857.6323  1338.6366  
321  0  -2682.5903  2085.651  3397.9744  
322  0  -14021.673  -10419.01  17468.918  
323  0  -1757.8488  -2841.1606  3340.9917  
324  0  -547.51636  1271.7146  1384.5693  
325  0  2480.4539  6729.749  7172.32  
326  0  1612.0422  -13158.112  13256.493  
327  0  -1358.3486  -1099.5159  1747.5829  
328  0  2485.744  -2189.9756  3312.841  
329  0  3654.2063  -5509.792  6611.432  
330  0  -7460.1875  -546.1741  7480.154  
331  0  8256.43  -286.07324  8261.385  
332  0  2494.351  -3821.2085  4563.2686  
333  0  -792.0857  -3872.2014  3952.3845  
334  0  -74.81958  -6210.089  6210.5396  
335  0  3365.0159  -8942.709  9554.861  
336  0  2662.4177  -1567.6915  3089.6804  
337  0  4260.161  -347.75024  4274.3306  
338  0  6613.8545  -2779.1995  7174.052  
339  0  -16859.28  14274.557  22090.684  
340  0  1540.5071  2028.5991  2547.2292  
341  0  5469.3926  643.6465  5507.135  
342  0  11165.469  1321.1753  11243.362  
343  0  -11294.751  -3940.3794  11962.357  
344  0  -3231.7605  -4233.214  5325.822  
345  0  -1750.5227  -6392.4087  6627.761  
346  4095  -2434.0632  -9189.609  9506.502  
347  4095  3544.596  -9536.496  10173.934  
348  4095  646.96423  1539.842  1670.2324  
349  4095  -2010.683  1378.4878  2437.8423  
350  4095  -1172.508  2631.64  2881.0247  
351  4095  10464.446  -4952.242  11577.1045  
352  4095  -4961.216  -2109.7915  5391.1855  
353  4095  1563.7273  297.25287  1591.7294  
354  4095  3007.0334  -1960.0626  3589.4424  
355  4095  -3582.2407  -6943.7627  7813.3403  
356  4095  5683.8843  11736.328  13040.243  
357  4095  3458.3882  -2983.557  4567.5005  
358  4095  2080.2415  -4767.9307  5201.977  
359  4095  4471.4814  -4840.7773  6589.937  
360  4095  514.8904  3876.462  3910.5076  
361  4095  -5673.66  2183.5903  6079.349  
362  4095  -4814.7754  1287.4047  4983.9214  
363  4095  -5210.657  -687.53033  5255.8203  
364  4095  -16467.893  -10616.916  19593.63  
365  4095  6827.621  4375.741  8109.471  
366  4095  4738.751  3234.1528  5737.2036  
367  4095  4232.4883  1521.2161  4497.561  
368  4095  602.63806  -19611.797  19621.055  
369  4095  3304.0454  -449.28833  3334.453  
370  4095  4848.1426  -1713.0942  5141.9043  
371  4095  3774.9988  -2261.6763  4400.6587  
372  4095  -719.58984  3859.0298  3925.547  
373  4095  -2673.7847  1362.491  3000.9175  
374  4095  -2936.2625  -1392.3943  3249.6768  
375  4095  -1516.989  737.6128  1686.8102  
376  4095  5453.946  3005.037  6227.0195  
377  4095  -1974.1503  -6530.7725  6822.6284  
378  4095  -182.24243  3791.9197  3796.2964  
379  4095  1606.8948  1818.3162  2426.5994  
380  0  337.37695  -2081.596  2108.759  
381  0  -10995.778  11245.02  15727.606  
382  0  7517.57  -3633.63  8349.678  
383  0  3927.4443  -3284.8823  5120.085  
384  0  1360.7112  -1583.6267  2087.9197  
385  0  -12699.566  -4600.169  13507.056  
386  0  -2710.1936  -7358.9043  7842.1055  
387  0  -76.44275  -4964.3877  4964.9766  
388  0  1638.0227  -4816.8223  5087.7197  
389  0  5254.4844  -6083.7197  8038.7344  
390  0  -528.54297  15340.434  15349.536  
391  0  1350.781  4655.897  4847.885  
392  0  4745.3794  1147.0979  4882.0547  
393  0  14639.307  -6797.8076  16140.616  
394  0  -8790.134  5017.9917  10121.596  
395  0  -551.4402  2589.6704  2647.731  
396  0  -1465.7795  -544.74365  1563.7313  
397  0  -6820.2676  -2362.1252  7217.734  
398  0  945.2988  1514.8389  1785.5885  
399  0  249.19263  -3547.3481  3556.09  
400  0  -1311.0034  1.9396286  1311.0049  
401  0  243.59375  3548.1038  3556.4558  
402  0  946.1362  -1515.2578  1786.3875  
403  0  -6829.756  2339.6619  7219.389  
404  0  -1461.7266  536.5205  1557.0802  
405  0  -530.7114  -2598.299  2651.945  
406  0  -8764.958  -5032.2974  10106.8545  
407  0  14634.805  6826.297  16148.556  
408  0  4744.941  -1142.0952  4880.4556  
409  0  1357.9961  -4657.1997  4851.151  
410  0  -490.0464  -15332.596  15340.425  
411  0  5234.119  6111.667  8046.6436  
412  0  1626.6683  4832.0063  5098.464  
413  0  -99.48364  4972.042  4973.037  
414  0  -2738.8943  7359.337  7852.476  
415  0  -12706.889  4566.9707  13502.675  
416  0  1370.0537  1589.5259  2098.485  
417  0  3920.904  3286.5215  5116.1226  
418  0  7502.6406  3639.1328  8338.64  
419  0  -10976.066  -11271.54  15732.82  
420  0  343.6455  2094.329  2122.3352  
421  0  1616.5627  -1815.3794  2430.818  
422  0  -176.10718  -3786.4568  3790.55  
423  0  -1984.6671  6526.198  6821.3027  
424  0  5462.9155  -3005.2673  6234.9883  
425  0  -1520.3164  -730.0149  1686.5005  
426  0  -2933.2427  1388.9456  3245.4712  
427  0  -2665.387  -1372.046  2997.7988  
428  0  -697.4512  -3853.5583  3916.1653  
429  0  3772.5566  2275.6304  4405.755  
430  0  4850.1016  1729.4109  5149.2085  
431  0  3301.3047  468.46704  3334.3777  
432  0  562.5569  19610.672  19618.74  
433  0  4233.635  -1524.6008  4499.7856  
434  0  4739.581  -3231.7979  5736.562  
435  0  6815.478  -4374.01  8098.315  
436  0  -16502.951  10581.558  19603.998  
437  0  -5207.948  668.8219  5250.7188  
438  0  -4810.4014  -1298.8508  4982.6675  
439  0  -5660.6533  -2196.496  6071.869  
440  4095  530.98926  -3874.1233  3910.3428  
441  4095  4470.2534  4851.542  6597.016  
442  4095  2077.5396  4771.176  5203.8726  
443  4095  3458.2673  2981.9138  4566.336  
444  4095  5704.1396  -11716.876  13031.593  
445  4095  -3598.6624  6947.468  7824.173  
446  4095  3005.848  1963.5244  3590.3413  
447  4095  1560.5073  -286.79065  1586.6417  
448  4095  -4955.5107  2102.773  5383.1904  
449  4095  10456.994  4973.094  11579.309  
450  4095  -1160.5443  -2639.5513  2883.417  
451  4095  -2008.9602  -1378.54  2436.451  
452  4095  651.932  -1527.7354  1661.0209  
453  4095  3523.6926  9553.998  10183.088  
454  4095  -2457.4856  9182.313  9505.478  
455  4095  -1757.3865  6387.5625  6624.905  
456  4095  -3241.2834  4214.409  5316.687  
