n v(n)    Re(T)       Im(T)        Mod(T) 
   
0  833  868340.0  0.0  868340.0  
1  866  17473.91  -112417.92  113767.86  
2  998  -73935.875  -42269.8  85166.01  
3  1064  -54347.113  29794.117  61978.207  
4  925  -9136.657  50183.855  51008.805  
5  972  33007.84  32282.068  46169.79  
6  886  34641.44  -4740.58  34964.305  
7  783  16656.96  -25962.943  30846.86  
8  892  -8917.529  -22268.783  23987.936  
9  848  -21840.854  -8743.498  23525.977  
10  961  -18228.863  9580.719  20593.242  
11  909  -3254.3215  15700.575  16034.297  
12  763  9357.651  12713.587  15786.1  
13  916  11783.888  1385.4252  11865.051  
14  901  8441.059  -10565.299  13523.202  
15  768  -2367.9707  -8332.835  8662.761  
16  887  -8221.895  -4389.518  9320.27  
17  863  -8512.518  2299.2178  8817.56  
18  991  -2305.0183  8816.608  9112.941  
19  800  4655.8145  7022.515  8425.694  
20  1014  4271.8096  -1235.5231  4446.895  
21  1079  7614.3594  -7112.9033  10419.782  
22  773  24.481323  -6554.474  6554.52  
23  888  -5972.3984  -2717.6406  6561.6396  
24  1010  -4231.3975  1211.8921  4401.523  
25  1056  221.87268  4014.5166  4020.643  
26  953  5273.449  3103.3105  6118.807  
27  839  5343.9297  1863.0492  5659.376  
28  915  2886.6206  1002.3253  3055.689  
29  854  4833.373  -1103.5121  4957.7446  
30  871  -3050.3215  1682.6532  3483.645  
31  951  -1643.9397  2630.0354  3101.5518  
32  877  -1513.152  3897.1118  4180.5635  
33  853  2876.3533  -534.8877  2925.6646  
34  810  -1748.0608  -608.77783  1851.034  
35  973  -903.2416  -452.49835  1010.24756  
36  876  -1373.909  -358.7374  1419.9713  
37  967  3963.4814  -791.912  4041.82  
38  889  2165.3354  -759.857  2294.7898  
39  950  -883.59283  380.4549  962.0199  
40  953  918.38074  -94.62738  923.2429  
41  961  -0.2869873  -4097.097  4097.097  
42  868  -503.5122  2765.311  2810.7773  
43  840  -1004.9885  -534.0571  1138.0769  
44  1055  -1248.2017  1230.1584  1752.5116  
45  735  2345.8013  -1959.3856  3056.4646  
46  762  291.59332  1869.7708  1892.3713  
47  990  3083.0532  -3468.4111  4640.592  
48  968  1460.5693  -2701.1836  3070.7744  
49  815  -2310.6946  -1489.3923  2749.109  
50  1011  -866.48584  3677.183  3777.8928  
51  967  -3756.6758  315.72073  3769.9194  
52  974  -1172.9216  -1693.0402  2059.643  
53  1082  905.4452  1174.9886  1483.3845  
54  840  2275.6963  -2849.925  3647.0352  
55  816  -1436.4089  1933.1168  2408.3628  
56  835  -3138.1992  -2279.5945  3878.7686  
57  855  -5122.2583  131.42365  5123.944  
58  801  848.4015  695.0056  1096.7306  
59  849  3654.3992  163.63733  3658.061  
60  906  4142.6265  2470.3286  4823.264  
61  998  1676.9563  -675.1414  1807.7606  
62  955  -863.99225  706.173  1115.8687  
63  859  -2475.647  3193.462  4040.6716  
64  784  -166.75409  1089.9663  1102.6483  
65  776  -1106.159  -2427.209  2667.3828  
66  810  -753.25165  878.7593  1157.4135  
67  851  -370.46857  -458.76498  589.6713  
68  901  -435.8966  -4137.627  4160.5244  
69  809  3.142395  -3082.7664  3082.7678  
70  993  106.95288  -1996.8118  1999.6741  
71  923  944.7314  2034.3258  2242.9888  
72  862  -831.49634  -1295.2328  1539.1603  
73  827  -1633.6215  -967.66077  1898.7065  
74  783  -1298.3641  -966.8998  1618.8405  
75  816  2569.5125  1654.6658  3056.1926  
76  702  -355.06042  1196.1687  1247.7529  
77  1033  2409.3008  2018.5973  3143.1619  
78  800  183.48346  1499.499  1510.6831  
79  995  591.6079  36.01294  592.703  
80  963  -340.60175  -3344.623  3361.9211  
81  809  -1137.8662  545.75323  1261.977  
82  857  898.8572  844.3895  1233.2632  
83  996  785.0636  -1380.6637  1588.256  
84  828  -2046.7461  -3401.169  3969.524  
85  1024  -784.68286  -1765.7241  1932.229  
86  905  -1304.2167  -2182.1943  2542.234  
87  977  -227.37396  1039.335  1063.9154  
88  1018  -156.73859  793.8526  809.1779  
89  1006  -2622.599  1118.3766  2851.1038  
90  908  -128.93024  2221.5234  2225.2617  
91  807  1754.7535  1961.7852  2632.064  
92  1090  1033.4861  -4181.515  4307.3384  
93  892  3062.9746  -2184.107  3761.9324  
94  863  314.21042  -2997.3064  3013.731  
95  1018  -715.3781  -1538.7963  1696.956  
96  1000  1519.117  606.62177  1635.7587  
97  930  -761.2357  331.44513  830.26245  
98  1009  -1096.2107  -1405.0654  1782.1018  
99  881  -803.3224  2116.5896  2263.9077  
100  1021  1572.6033  1619.4547  2257.369  
101  1044  -613.5145  889.78235  1080.7926  
102  1194  -344.281  -69.09515  351.14606  
103  1274  -999.93176  -1584.9529  1874.0168  
104  1390  1296.8147  -2675.991  2973.6604  
105  1570  39.25818  1190.7166  1191.3635  
106  1587  1245.925  3063.2734  3306.9583  
107  1512  -2209.5007  594.18585  2288.0015  
108  1659  2856.5154  -3809.3203  4761.365  
109  1671  -1430.9019  2674.4883  3033.211  
110  1682  -2963.656  444.45972  2996.7983  
111  1894  116.06781  2557.7122  2560.3442  
112  1910  -620.66266  2396.2102  2475.2869  
113  1869  -3231.309  192.5899  3237.0432  
114  2207  -2502.7188  -441.89258  2541.4307  
115  2065  -2173.1763  -168.36017  2179.688  
116  2155  420.95322  -136.92438  442.66226  
117  2235  2307.9858  942.8077  2493.1274  
118  2505  -4049.5657  -869.07245  4141.771  
119  2312  54.91794  1724.0481  1724.9225  
120  2566  191.93616  1461.4312  1473.9812  
121  2494  -140.36401  271.73816  305.84912  
122  2571  -581.40857  1908.957  1995.5332  
123  2456  -2093.9072  3333.1404  3936.2764  
124  2564  -2017.0797  -1714.3088  2647.1616  
125  2366  -1555.5696  -2081.801  2598.7866  
126  2417  -335.4295  -688.05316  765.46075  
127  2249  -1817.8904  2306.1235  2936.483  
128  2260  474.07947  -1339.5249  1420.9427  
129  2208  -573.4266  -1075.8198  1219.1006  
130  2239  -1052.1638  581.49  1202.1561  
131  2186  1634.7336  -844.1158  1839.8058  
132  2348  213.95721  -426.4975  477.15594  
133  2084  -766.706  -539.6383  937.5754  
134  2186  -1135.8792  849.3172  1418.2952  
135  2253  2661.001  -2678.8286  3775.8506  
136  2299  -386.94305  313.003  497.69046  
137  2000  -69.559326  204.46796  215.97603  
138  1931  -1977.5941  -1491.4634  2476.9622  
139  2035  -1610.4833  2544.7742  3011.5664  
140  2158  -380.36063  -763.86035  853.32104  
141  1934  176.24286  -1483.3259  1493.7594  
142  1906  -1974.5881  1840.931  2699.6343  
143  2082  -72.18982  951.95386  954.68713  
144  2074  -2151.8704  33.00757  2152.1235  
145  1975  2511.3599  -228.1612  2521.703  
146  2018  -3124.384  1815.1399  3613.3792  
147  1974  -2809.6694  -458.6303  2846.8552  
148  1971  847.9226  1192.307  1463.0682  
149  2102  -1374.4293  1055.3451  1732.8616  
150  2065  76.12222  -672.9127  677.20465  
151  1924  -980.4299  -1264.2788  1599.8885  
152  1905  1820.1016  4561.4526  4911.173  
153  1787  -804.7031  1413.6064  1626.6008  
154  2031  305.7704  2506.8562  2525.4353  
155  1774  -1439.3494  -3042.475  3365.766  
156  1957  3922.7751  340.42206  3937.5186  
157  1892  -2696.6692  -2108.1174  3422.891  
158  1859  1812.9111  3350.9224  3809.8987  
159  1693  -674.00415  -427.01062  797.88446  
160  1912  -1525.4988  -870.17316  1756.2311  
161  1722  954.3744  -1150.0267  1494.4537  
162  1670  -113.94655  -1946.1361  1949.469  
163  1785  -142.13855  605.30273  621.76746  
164  1815  2731.8716  196.79108  2738.9504  
165  1910  920.7082  3108.6162  3242.098  
166  1707  -1384.1013  1983.9026  2419.0093  
167  1749  846.8823  -2444.301  2586.8547  
168  1686  -25.384644  -1137.3204  1137.6036  
169  1584  -1490.31  989.18286  1788.7166  
170  1681  -31.879578  328.96063  330.50174  
171  1608  -2022.6584  -616.43945  2114.5083  
172  1817  2300.1284  3.7788086  2300.1316  
173  1762  -884.20746  -2948.9685  3078.6748  
174  1783  -2066.8672  -1818.4033  2752.913  
175  1486  -3199.8  3884.2153  5032.4795  
176  1643  1759.0673  -2085.1738  2728.052  
177  1794  1460.3663  -245.43152  1480.8466  
178  1571  -2139.2263  -175.63214  2146.4238  
179  1419  -645.4097  3945.1782  3997.6223  
180  1565  784.4569  2820.3718  2927.434  
181  1487  -1036.7986  1045.4861  1472.4104  
182  1623  122.84347  2642.0088  2644.863  
183  1527  188.41278  -1259.1306  1273.1493  
184  1403  2241.9014  -1469.5048  2680.5906  
185  1538  -1297.6354  1705.394  2142.948  
186  1633  -3381.0938  -3466.9067  4842.6475  
187  1536  176.27133  -595.5295  621.0692  
188  1489  -1701.6199  426.56628  1754.2716  
189  1525  2683.6326  2468.7769  3646.47  
190  1600  190.7333  495.20486  530.6666  
191  1552  -1717.8308  -881.93396  1930.9972  
192  1468  -5580.2773  -213.86334  5584.374  
193  1594  -2237.7542  -2626.587  3450.5798  
194  1617  3796.8127  764.2351  3872.963  
195  1447  984.43713  -1152.3774  1515.6155  
196  1383  -2158.0938  -1569.0286  2668.1865  
197  1398  -913.12085  -852.47815  1249.2032  
198  1306  2134.256  3482.4568  4084.4282  
199  1637  1982.8828  -1750.8356  2645.2314  
200  1485  -1812.4772  -324.1065  1841.2274  
201  1500  -593.52356  -1379.8918  1502.1224  
202  1606  2565.358  -3038.065  3976.2922  
203  1301  207.81094  -419.21014  467.89157  
204  1283  810.61395  -557.99426  984.0999  
205  1462  -2925.2568  862.20514  3049.6763  
206  1361  891.6584  345.57562  956.283  
207  1296  -924.725  -1590.8306  1840.0702  
208  1255  -2829.3784  -1623.941  3262.2947  
209  1320  -970.22015  -75.59949  973.1611  
210  1391  -207.94057  -328.49298  388.77618  
211  1202  -1337.5658  -1417.6643  1949.0651  
212  1366  -1570.6526  1688.6489  2306.184  
213  1397  1396.0438  918.96277  1671.3561  
214  1470  -1962.4496  -106.120605  1965.3167  
215  1343  -2443.819  3128.52  3969.8728  
216  1222  -2097.3206  624.8766  2188.4297  
217  1382  1101.8783  2143.141  2409.8113  
218  1308  -565.1368  1600.1816  1697.0447  
219  1459  507.641  -150.40387  529.4532  
220  1222  -1661.3975  -1028.5104  1953.9895  
221  1398  -1203.3306  -148.68347  1212.4814  
222  1436  -649.56976  1914.7993  2021.9786  
223  1405  829.5161  2442.3738  2579.3965  
224  1236  478.5613  -154.01642  502.7345  
225  1385  1244.758  391.28015  1304.8075  
226  1369  -1431.8181  -158.96844  1440.6158  
227  1249  -10.476929  -1625.4302  1625.464  
228  1200  -1472.44  1785.3087  2314.1753  
229  1098  1034.4252  93.40564  1038.6337  
230  1212  2076.989  -177.78497  2084.5842  
231  1165  -784.27045  -819.57306  1134.3633  
232  1357  1812.0708  -158.05487  1818.9507  
233  1240  -3889.318  3665.8071  5344.6177  
234  1247  974.9774  -785.46704  1252.0142  
235  1168  811.539  871.1016  1190.5518  
236  1327  -563.32745  -1013.38715  1159.4358  
237  1301  563.16223  -3884.2898  3924.9023  
238  1234  3462.02  1113.9497  3636.821  
239  1270  -4531.261  -1167.3354  4679.2095  
240  1346  2532.1104  -1802.6721  3108.2488  
241  1242  -100.43918  -4396.061  4397.208  
242  1229  1594.5183  -1637.7012  2285.7283  
243  1084  -383.2555  -84.98004  392.56384  
244  1238  -643.2097  462.47522  792.2134  
245  1244  1839.2081  -2258.701  2912.802  
246  1290  -1886.6484  -904.64636  2092.326  
247  1149  -4204.2705  -4074.9775  5855.0264  
248  1197  1362.9995  3122.7134  3407.2139  
249  1302  1359.335  1389.7118  1943.9883  
250  1088  -1097.9893  2786.3835  2994.9148  
251  1340  -1174.568  1741.2483  2100.3704  
252  1204  3255.6172  -1070.9109  3427.2283  
253  1117  -156.16608  450.82715  477.10898  
254  1325  1347.3179  -110.558716  1351.8464  
255  1234  -2052.4368  -3706.1343  4236.4995  
256  1188  -2018.605  742.8082  2150.937  
257  1175  3234.468  1023.2014  3392.451  
258  1243  -372.63422  2048.5793  2082.1946  
259  1143  1543.9701  -727.12915  1706.6226  
260  1176  518.85486  611.73425  802.1403  
261  1091  -43.175995  -584.4518  586.0444  
262  1217  -651.4559  -1224.8698  1387.3358  
263  1316  -1662.7479  455.28406  1723.9531  
264  1139  -2544.3745  100.869995  2546.3733  
265  1100  -1107.4355  742.69434  1333.4198  
266  1067  -2092.3425  78.31128  2093.8076  
267  1225  -430.97653  779.3195  890.55023  
268  1119  1257.4194  -475.5835  1344.3523  
269  1110  -432.1315  2106.4204  2150.2893  
270  1103  1994.5413  1811.1416  2694.1472  
271  1166  -289.90445  -506.94965  583.98846  
272  1128  3390.608  -246.29742  3399.5417  
273  1258  1178.3713  770.93506  1408.1548  
274  1302  1576.5815  -1391.9691  2103.1375  
275  1080  -2395.9355  -847.1789  2541.3027  
276  1125  -944.35486  -1980.8899  2194.4773  
277  1014  2137.4595  2934.106  3630.1118  
278  1208  -2844.1748  -907.8797  2985.5613  
279  1057  -1580.9443  2446.93  2913.22  
280  1182  155.49811  512.54987  535.61835  
281  1136  997.57623  -4650.873  4756.6562  
282  1111  -1617.6523  1027.0338  1916.1414  
283  1252  -2232.73  -2145.7498  3096.6636  
284  1016  -2153.2224  2248.8713  3113.485  
285  1004  2922.678  -2286.625  3710.8894  
286  1199  2401.8445  -791.1081  2528.7761  
287  1259  1126.1716  221.11511  1147.6735  
288  989  -1935.3525  1237.9341  2297.405  
289  1274  2085.918  -904.66846  2273.649  
290  1003  2510.8647  -1251.949  2805.676  
291  1164  1261.2092  487.56635  1352.1722  
292  1062  -2303.44  1279.7505  2635.0706  
293  1190  -658.1882  -928.84174  1138.4017  
294  1055  1455.7474  -3296.819  3603.9167  
295  920  742.5767  -117.46741  751.8103  
296  1080  2290.3171  747.68744  2409.2715  
297  1174  -328.00842  -653.94635  731.59784  
298  1179  1676.6008  994.40393  1949.3152  
299  1194  -1465.8898  1690.5746  2237.6047  
300  1165  361.88385  -298.7964  469.2965  
301  1153  1973.2476  1478.5237  2465.7124  
302  1267  5722.587  1380.8792  5886.835  
303  1247  162.90997  -188.96484  249.49423  
304  1016  105.88129  636.99  645.7299  
305  1057  2354.7446  224.69452  2365.4407  
306  1069  1873.036  -1408.4756  2343.516  
307  992  361.94098  2266.3064  2295.0264  
308  1166  1512.3931  1285.4104  1984.8457  
309  995  -89.52539  2010.4376  2012.4299  
310  1103  3901.1519  2229.285  4493.183  
311  931  -1854.814  1278.1245  2252.54  
312  1183  -165.09741  -2362.915  2368.6758  
313  914  1198.6182  -1742.5933  2115.0217  
314  1158  -742.8419  -1622.4324  1784.4049  
315  1128  938.00555  221.16364  963.726  
316  922  -1240.7091  2281.0693  2596.6587  
317  1143  -85.59442  -1644.2816  1646.5079  
318  968  431.96918  237.08722  492.75522  
319  1122  -328.1714  965.18054  1019.4459  
320  1003  -1223.1716  1101.6381  1646.1334  
321  1113  492.18665  -2663.6646  2708.7556  
322  992  2803.5037  -3936.084  4832.431  
323  974  -2538.1943  -230.19806  2548.6116  
324  1024  -865.08545  -571.79004  1036.9747  
325  901  388.79407  -3820.0166  3839.751  
326  1160  1358.9597  343.9395  1401.8081  
327  863  -3882.9712  2121.4675  4424.7134  
328  1069  678.2424  -744.93304  1007.4413  
329  944  766.6076  580.8473  961.806  
330  1009  -863.0997  -321.94403  921.1889  
331  1048  454.4228  -948.86694  1052.0687  
332  947  869.2482  -1206.8503  1487.3064  
333  1108  -529.484  1772.6287  1850.0177  
334  1005  1339.1345  -489.67203  1425.8541  
335  1018  -3536.3403  1806.8285  3971.1877  
336  972  54.89319  -1458.4849  1459.5175  
337  1088  -1725.0061  2160.1655  2764.4097  
338  1168  418.81104  2785.6392  2816.9465  
339  927  -1821.4202  405.766  1866.0701  
340  1022  -2235.5544  321.13495  2258.502  
341  1008  2038.4463  -1152.9338  2341.905  
342  1141  -3580.6987  -1282.8008  3803.5486  
343  1177  3330.2988  1737.665  3756.3772  
344  1014  490.41583  -61.58072  494.267  
345  893  777.7773  -1791.0957  1952.6805  
346  1141  92.44891  674.06445  680.3747  
347  896  403.70544  -1898.0615  1940.5194  
348  959  2408.6465  1696.4359  2946.0945  
349  1030  1036.5669  -445.932  1128.4176  
350  953  -3411.7283  440.98935  3440.1108  
351  890  3899.5532  381.78687  3918.198  
352  910  -3195.065  -2510.2803  4063.2434  
353  991  955.1106  4258.986  4364.7676  
354  930  1919.6803  -4021.4998  4456.1904  
355  940  -1761.2644  -549.7832  1845.0782  
356  1033  -1724.1562  -678.33875  1852.7974  
357  1045  -1438.219  -425.33038  1499.7932  
358  1060  1303.2705  1657.689  2108.66  
359  995  -826.56573  -971.3777  1275.455  
360  1085  958.6215  -1514.0339  1791.9972  
361  866  -2484.9673  1476.4484  2890.495  
362  1189  -719.70807  431.19843  838.9945  
363  1004  2536.0598  609.6192  2608.3013  
364  1015  -793.1421  828.6387  1147.0469  
365  871  330.37427  167.29388  370.31662  
366  868  3115.178  -4176.0894  5209.9956  
367  895  -530.73114  -1837.7126  1912.8156  
368  995  1381.7861  -16.94458  1381.89  
369  1048  2285.9424  -1955.0934  3007.9766  
370  890  -1225.4321  -1880.3328  2244.401  
371  985  -1711.2715  400.24332  1757.4541  
372  858  831.5348  -96.90419  837.16223  
373  1057  34.53296  4392.933  4393.069  
374  1094  3152.6929  -3134.7856  4445.9365  
375  828  636.1575  2473.2324  2553.7375  
376  1048  294.75433  1007.128  1049.3745  
377  958  835.4186  1490.0192  1708.2393  
378  868  -3792.8276  325.50906  3806.7698  
379  965  -448.23743  2592.5452  2631.0088  
380  996  -407.42072  -992.0467  1072.4497  
381  816  211.65887  1588.5447  1602.5835  
382  870  -1212.3031  2420.3027  2706.9436  
383  1089  -1135.2863  -1308.4332  1732.3026  
384  962  724.0443  1668.9688  1819.2573  
385  969  683.6128  592.8367  904.8656  
386  958  993.0384  2190.1826  2404.792  
387  1020  -241.05011  -737.0723  775.4874  
388  878  -348.6526  -2131.714  2160.0378  
389  879  -981.508  507.9667  1105.1643  
390  1053  -444.81042  1975.1462  2024.6133  
391  849  -2581.8623  -520.3807  2633.7822  
392  1022  -1805.9335  -450.28735  1861.2239  
393  1007  4369.0786  1391.2104  4585.228  
394  1077  1142.8668  1935.3015  2247.5623  
395  919  458.83905  -2495.4731  2537.3057  
396  994  1966.0481  -1991.6602  2798.5808  
397  830  -2931.7815  1921.5322  3505.3713  
398  865  -489.56165  3724.3218  3756.3604  
399  876  -3749.4858  3721.9192  5283.117  
400  1009  1736.0037  -3.127791  1736.0065  
401  867  -3741.6953  -3735.9438  5287.4907  
402  891  -479.5982  -3726.6533  3757.3872  
403  1011  -2925.8208  -1927.8728  3503.872  
404  835  1965.6733  1996.9229  2802.066  
405  929  456.5918  2491.122  2532.62  
406  822  1149.5116  -1938.3666  2253.5842  
407  801  4368.4263  -1383.988  4582.4194  
408  881  -1811.0823  446.47382  1865.3037  
409  982  -2583.0574  512.0227  2633.316  
410  1113  -438.11017  -1977.2858  2025.2406  
411  873  -982.89  -512.64056  1108.5455  
412  877  -350.53668  2129.8918  2158.5447  
413  1007  -239.94794  732.2545  770.5658  
414  1036  998.79083  -2191.6965  2408.5508  
415  1149  683.91876  -593.7694  905.708  
416  1111  726.2147  -1668.3992  1819.5999  
417  851  -1139.0276  1302.4425  1730.2429  
418  892  -1207.5553  -2425.5884  2709.5515  
419  936  215.31696  -1589.8898  1604.4037  
420  1010  -410.6236  988.85016  1070.7177  
421  776  -442.62762  -2594.6633  2632.1467  
422  906  -3790.651  -334.65317  3805.3945  
423  751  842.6443  -1489.5931  1711.4137  
424  1115  300.9311  -1008.4153  1052.3596  
425  781  645.0  -2469.855  2552.6865  
426  862  3148.8591  3140.9634  4447.5796  
427  992  43.240906  -4393.8765  4394.0894  
428  823  830.6189  101.21338  836.76276  
429  874  -1711.9736  -400.8719  1758.281  
430  972  -1226.3732  1879.5089  2244.2249  
431  996  2284.664  1959.0017  3009.5479  
432  1059  1380.5201  19.355316  1380.6558  
433  845  -534.4955  1838.5188  1914.6375  
434  862  3105.5762  4176.6196  5204.686  
435  975  326.5221  -173.12785  369.58075  
436  1020  -791.10724  -832.5136  1148.4467  
437  954  2534.9683  -605.9185  2606.377  
438  884  -723.6911  -434.4651  844.0905  
