n v(n)    Re(T)       Im(T)        Mod(T) 
   
0  1  82769.0  0.0  82769.0  
1  2  53243.01  -61873.734  81628.29  
2  4  -12085.094  -80490.02  81392.22  
3  3  -68543.89  -43115.887  80976.82  
4  2  -76852.49  23626.07  80402.09  
5  1  -31924.61  72954.17  79633.484  
6  0  34089.066  70956.3  78720.14  
7  1  75012.45  20212.812  77688.0  
8  2  63252.97  -42952.312  76458.086  
9  1  8504.674  -74577.82  75061.18  
10  1  -49944.14  -54033.16  73579.88  
11  1  -71930.34  2502.1807  71973.85  
12  0  -43894.2  54772.793  70190.875  
13  2  12561.056  67107.19  68272.65  
14  3  57293.324  33261.953  66248.64  
15  3  60572.53  -20984.293  64104.383  
16  0  22812.898  -57586.047  61940.14  
17  0  -27665.39  -52807.234  59615.25  
18  0  -55633.055  -12898.687  57108.78  
19  1  -44059.72  32289.473  54624.8  
20  3  -4046.4832  51932.72  52090.13  
21  2  34846.223  35090.48  49453.02  
22  0  46664.56  -3288.9944  46780.324  
23  0  26271.06  -35340.34  44035.31  
24  2  -9007.578  -40295.566  41290.062  
25  0  -33978.105  -18137.436  38515.945  
26  2  -33312.4  12884.395  35717.273  
27  2  -11077.234  31026.115  32944.27  
28  3  14937.194  26134.646  30102.152  
29  0  26852.31  5278.752  27366.254  
30  0  19318.22  -15218.242  24592.45  
31  0  937.5064  -21825.164  21845.291  
32  0  -13935.552  -13169.908  19174.1  
33  3  -16404.227  1711.1493  16493.232  
34  0  -7910.6084  11426.466  13897.548  
35  0  2877.0662  11050.101  11418.504  
36  2  8035.697  3951.726  8954.807  
37  2  6074.0693  -2582.5576  6600.2974  
38  2  1293.0454  -4096.5493  4295.775  
39  2  -1108.1581  -1778.0254  2095.0867  
40  0  43.66787  21.34628  48.606033  
41  0  1532.6201  -1304.8694  2012.8607  
42  1  30.075401  -3877.8381  3877.9548  
43  3  -4287.105  -3697.5327  5661.362  
44  3  -7259.592  1026.6002  7331.82  
45  0  -4794.295  7468.585  8874.966  
46  0  2990.669  9891.987  10334.191  
47  0  10596.823  4722.7  11601.576  
48  2  11613.646  -5456.871  12831.767  
49  3  3706.0684  -13365.066  13869.389  
50  1  -8235.394  -12305.787  14807.231  
51  2  -15513.995  -1920.4149  15632.403  
52  1  -12073.2295  10942.188  16293.997  
53  3  458.0138  16848.072  16854.297  
54  3  13410.346  10921.786  17295.166  
55  3  17325.48  -3079.182  17596.979  
56  4  9082.5625  -15297.323  17790.477  
57  1  -5702.0947  -16957.213  17890.248  
58  0  -16519.887  -6709.7393  17830.516  
59  1  -15788.28  8136.971  17761.76  
60  1  -4091.772  17020.379  17505.31  
61  0  10059.163  13901.628  17159.312  
62  2  16674.994  1425.9559  16735.854  
63  0  11555.86  -11360.395  16204.829  
64  2  -966.6336  -15588.472  15618.413  
65  1  -11930.427  -9039.706  14968.346  
66  0  -13882.479  2953.3252  14193.145  
67  0  -6398.8003  11726.243  13358.496  
68  1  4425.3013  11695.158  12504.399  
69  2  10932.493  3954.703  11625.794  
70  3  9286.8545  -5199.981  10643.564  
71  0  1945.594  -9459.172  9657.1875  
72  2  -5256.007  -6829.021  8617.49  
73  1  -7545.693  -411.87067  7556.925  
74  3  -4492.936  4670.637  6480.8433  
75  2  540.9848  5394.3535  5421.4126  
76  0  3509.0964  2476.7913  4295.143  
77  1  3164.5122  -796.9402  3263.319  
78  2  958.4742  -1913.1422  2139.8098  
79  2  -416.6483  -1022.87866  1104.4802  
80  2  -12.342375  31.12064  33.478775  
81  2  859.7487  -553.8337  1022.6923  
82  1  328.30386  -1976.732  2003.8096  
83  4  -1920.6663  -2264.122  2969.0415  
84  3  -3892.068  -54.719273  3892.4526  
85  1  -3180.2214  3561.8743  4775.0137  
86  0  748.06433  5551.802  5601.973  
87  0  5341.179  3474.635  6371.9136  
88  2  6865.9175  -1970.467  7143.078  
89  0  3187.684  -7059.0176  7745.389  
90  0  -3492.294  -7594.8037  8359.256  
91  1  -8533.8545  -2435.473  8874.582  
92  0  -7829.096  5099.7964  9343.59  
93  1  -1244.3566  9648.879  9728.786  
94  3  6714.7236  7514.514  10077.472  
95  3  10378.623  -192.27205  10380.404  
96  0  6722.095  -8140.0156  10556.818  
97  0  -1830.3501  -10545.79  10703.451  
98  1  -9222.788  -5508.1543  10742.42  
99  3  -10257.276  3329.6958  10784.183  
100  4088  -4094.0889  9870.953  10686.3125  
101  4087  4788.0693  9400.05  10549.244  
102  4086  10040.316  2494.1484  10345.469  
103  4088  8240.221  -5831.7607  10095.082  
104  4088  887.7908  -9744.003  9784.363  
105  4090  -6538.254  -6812.691  9442.538  
106  4087  -8999.647  555.9463  9016.803  
107  4087  -5218.3555  6752.3394  8533.775  
108  4087  1646.7767  7848.8467  8019.742  
109  4087  6568.832  3657.9263  7518.642  
110  4085  6462.6006  -2415.9922  6899.437  
111  4089  2152.8953  -5857.562  6240.6724  
112  4090  -2705.1057  -4925.6104  5619.5405  
113  4087  -4850.851  -1037.675  4960.597  
114  4089  -3377.7012  2644.7766  4289.954  
115  4085  -168.93373  3553.0823  3557.0962  
116  4084  2053.4978  1983.0011  2854.671  
117  4087  2141.1294  -229.36742  2153.38  
118  4088  798.11993  -1199.0615  1440.3972  
119  4090  -168.77261  -675.05133  695.82935  
120  0  10.901525  -1.2015376  10.96754  
121  0  657.62775  -273.28168  712.14966  
122  0  444.8355  -1347.3638  1418.8966  
123  0  -1077.2834  -1785.2457  2085.1  
124  5  -2683.8132  -469.98056  2724.653  
125  4  -2593.762  2084.6487  3327.666  
126  3  -110.32226  3863.486  3865.061  
127  0  3318.6191  3020.3633  4487.2964  
128  1  5058.8276  -596.69507  5093.897  
129  0  3001.5938  -4633.857  5521.0684  
130  1  -1629.8025  -5715.797  5943.6177  
131  0  -5752.668  -2709.7336  6358.9185  
132  1  -6061.4556  2708.2595  6638.969  
133  2  -2005.0419  6645.5737  6941.4585  
134  0  3882.8303  6094.4585  7226.2573  
135  2  7476.2554  1034.9622  7547.5522  
136  1  5724.58  -5074.7163  7650.0693  
137  1  -49.995926  -7759.3584  7759.5195  
138  0  -6077.7583  -5047.417  7900.352  
139  0  -7798.249  1326.4221  7910.252  
140  0  -4166.955  6677.0317  7870.5947  
141  0  2391.1824  7423.585  7799.19  
142  3  7033.5356  2958.2925  7630.3423  
143  2  6677.44  -3291.5186  7444.615  
144  0  1766.8785  -6923.0786  7144.9897  
145  0  -4057.6606  -5813.6245  7089.629  
146  3  -6609.939  -642.15027  6641.0576  
147  5  -4662.404  4388.809  6403.097  
148  0  250.71176  5988.731  5993.9766  
149  0  4503.3184  3489.7583  5697.218  
150  0  5094.4785  -994.2791  5190.5977  
151  1  2258.098  -4180.491  4751.3696  
152  3  -1385.7097  -3988.901  4222.739  
153  0  -3512.8047  -1352.2413  3764.0874  
154  1  -2852.065  1616.0729  3278.104  
155  2  -646.26526  2619.8533  2698.3865  
156  4  1227.6188  1748.5801  2136.4878  
157  3  1570.9509  87.921036  1573.4093  
158  1  748.5299  -768.9817  1073.1401  
159  3  -52.781357  -599.5885  601.90717  
160  2  21.872917  17.012947  27.710375  
161  1  577.3528  -102.9269  586.4556  
162  1  552.19653  -880.29486  1039.1534  
163  0  -621.1242  -1510.2397  1632.9786  
164  2  -1980.2942  -658.2585  2086.8323  
165  0  -2205.9062  1244.9092  2532.9473  
166  4  -592.4248  2990.293  3048.4126  
167  1  2170.106  2757.8782  3509.3093  
168  0  3936.6648  170.7239  3940.365  
169  0  2985.6873  -3224.45  4394.474  
170  4  -541.0207  -4602.0303  4633.7227  
171  1  -4164.1313  -2801.1794  5018.625  
172  1  -5101.086  1408.3439  5291.9287  
173  0  -2408.207  4986.3486  5537.43  
174  0  2355.9006  5303.386  5803.1177  
175  2  5697.742  1689.0718  5942.83  
176  3  5108.572  -3326.29  6096.0405  
177  1  867.2439  -6151.7466  6212.576  
178  0  -4094.2437  -4738.694  6262.4316  
179  1  -6293.4463  25.06089  6293.496  
180  0  -4116.519  4745.947  6282.4946  
181  3  961.96796  6178.5483  6252.987  
182  2  5263.287  3259.9792  6191.0947  
183  2  5730.8013  -1793.9669  6005.0312  
184  0  2345.7603  -5338.4165  5831.0615  
185  0  -2448.492  -5112.9683  5668.9995  
186  2  -5266.5127  -1406.1049  5450.9893  
187  1  -4338.288  2927.6113  5233.7036  
188  3  -533.11304  4861.6226  4890.765  
189  0  3099.019  3402.4006  4602.2  
190  0  4241.8647  -147.06245  4244.413  
191  0  2374.847  -3022.0354  3843.5134  
192  1  -668.7441  -3462.6428  3526.6292  
193  3  -2707.2625  -1559.2976  3124.2085  
194  3  -2531.2676  870.38525  2676.7305  
195  1  -826.1437  2090.967  2248.2563  
196  0  870.7087  1638.8081  1855.7546  
197  1  1307.7128  273.58856  1336.0253  
198  3  766.10913  -552.6964  944.6674  
199  3  -1.8093108  -451.0905  451.09415  
200  3  50.99423  19.895428  54.737915  
201  1  455.0485  -33.588844  456.28647  
202  0  566.42926  -759.3168  947.3141  
203  1  -267.62854  -1298.8069  1326.0936  
204  0  -1549.8657  -810.7028  1749.0919  
205  0  -2045.0575  785.17334  2190.6067  
206  1  -863.1033  2448.1704  2595.8594  
207  1  1481.8179  2510.909  2915.5527  
208  2  3221.7966  626.8662  3282.2148  
209  1  2809.1433  -2242.3552  3594.3625  
210  0  175.04759  -3947.612  3951.4912  
211  2  -3097.5593  -2866.4702  4220.3706  
212  2  -4424.4893  499.10226  4452.551  
213  1  -2661.5986  3844.991  4676.33  
214  1  1225.0109  4720.836  4877.186  
215  0  4555.5806  2228.678  5071.5205  
216  0  4740.059  -2049.7522  5164.266  
217  0  1588.7611  -5048.0  5292.114  
218  2  -2818.4658  -4513.134  5320.914  
219  4  -5327.879  -833.39844  5392.666  
220  2  -4053.149  3494.5625  5351.634  
221  0  -44.10523  5317.9316  5318.1147  
222  0  3989.4219  3469.5024  5287.053  
223  1  5128.3843  -737.8727  5181.195  
224  3  2707.8347  -4272.9077  5058.6665  
225  2  -1427.0896  -4647.2476  4861.429  
226  0  -4295.1206  -1903.7361  4698.114  
227  1  -4051.4365  1944.8147  4494.0454  
228  0  -1140.71  4064.6763  4221.707  
229  2  2239.6067  3304.349  3991.8118  
230  0  3692.8315  420.93777  3716.745  
231  0  2542.1506  -2292.159  3422.9404  
232  0  -125.7025  -3014.4236  3017.0435  
233  3  -2119.9722  -1684.8181  2707.9316  
234  0  -2334.1926  429.43234  2373.3662  
235  0  -994.5815  1716.3566  1983.7015  
236  2  556.68353  1496.3861  1596.5801  
237  5  1101.7668  475.62488  1200.0454  
238  3  681.1612  -408.66165  794.3456  
239  1  91.36983  -374.29523  385.2861  
240  0  1.152286  5.9224896  6.033543  
241  0  365.67  41.976234  368.0714  
242  3  548.44824  -560.7943  784.40155  
243  3  -112.5645  -1180.8572  1186.2101  
244  2  -1230.4196  -929.07983  1541.7916  
245  0  -1876.7366  373.13647  1913.471  
246  0  -1035.0833  1944.1198  2202.4983  
247  4  915.61597  2390.3845  2559.7441  
248  2  2720.2134  942.8101  2878.9673  
249  1  2790.7295  -1568.208  3201.1633  
250  1  665.0424  -3387.3677  3452.0344  
251  2  -2301.6003  -2949.2  3741.0083  
252  3  -3963.1934  -201.39893  3968.3074  
253  0  -2889.7732  3019.0444  4179.1646  
254  1  446.2191  4289.7886  4312.9336  
255  2  3683.8538  2580.7446  4497.8906  
256  4  4453.4277  -1102.098  4587.7705  
257  2  2077.0972  -4195.097  4681.151  
258  1  -1849.5106  -4368.9443  4744.298  
259  0  -4548.922  -1425.3904  4767.0146  
260  2  -4118.6323  2520.29  4828.56  
261  1  -779.46796  4679.2505  4743.728  
262  3  2971.6443  3648.9985  4705.939  
263  1  4600.8184  46.696804  4601.055  
264  1  2962.0334  -3393.6052  4504.4644  
265  0  -585.5554  -4366.799  4405.8833  
266  0  -3542.1545  -2298.5894  4222.6025  
267  1  -3860.4097  1123.8445  4020.6702  
268  3  -1556.475  3460.674  3794.5854  
269  0  1530.2571  3185.7114  3534.1821  
270  0  3211.215  896.81665  3334.094  
271  1  2535.3171  -1652.6605  3026.4038  
272  1  377.48407  -2720.8171  2746.8782  
273  0  -1633.3641  -1807.9402  2436.4988  
274  1  -2096.5151  43.23949  2096.961  
275  0  -1132.4307  1341.3195  1755.4307  
276  1  244.1211  1408.4318  1429.4318  
277  1  923.0152  598.7819  1100.2258  
278  3  654.5972  -250.05214  700.7308  
279  1  138.37129  -326.25488  354.3852  
280  1  13.915672  3.1538408  14.26859  
281  0  328.68948  99.27556  343.35464  
282  0  568.48413  -409.1185  700.3943  
283  1  93.74268  -1108.4067  1112.3638  
284  1  -954.17084  -995.2373  1378.7455  
285  0  -1741.6338  112.44081  1745.2596  
286  3  -1272.4055  1629.3187  2067.2917  
287  1  510.06894  2330.9531  2386.1084  
288  0  2349.4304  1269.5542  2670.504  
289  1  2785.3684  -1039.4525  2973.0015  
290  1  1098.5006  -2970.9187  3167.501  
291  0  -1680.1068  -2987.1492  3427.2173  
292  2  -3568.8225  -748.82043  3646.5361  
293  0  -3044.5376  2320.1284  3827.8198  
294  5  -214.69566  3966.0295  3971.8364  
295  2  2973.5852  2881.4824  4140.6704  
296  0  4234.889  -397.87457  4253.5386  
297  0  2502.5403  -3563.1187  4354.1387  
298  2  -1037.1877  -4243.09  4368.0166  
299  3  -3942.898  -1982.9819  4413.464  
300  4  -4090.9106  1676.2809  4421.026  
301  3  -1357.5564  4178.5146  4393.5117  
302  2  2235.489  3722.5232  4342.187  
303  0  4221.657  655.777  4272.2866  
304  0  3229.0857  -2638.1116  4169.7275  
305  2  77.72602  -4062.271  4063.0144  
306  2  -2905.796  -2556.1865  3870.1086  
307  2  -3697.4976  518.35046  3733.6543  
308  1  -1916.2826  2959.698  3525.8972  
309  3  905.34064  3218.5168  3343.4253  
310  2  2824.0784  1307.4531  3112.0496  
311  1  2592.244  -1191.3488  2852.9004  
312  3  702.99084  -2482.0674  2579.7004  
313  0  -1211.07  -1893.5215  2247.691  
314  2  -1931.7075  -250.84404  1947.9263  
315  2  -1208.9086  1112.2264  1642.7135  
316  4  26.297506  1331.3148  1331.5745  
317  2  761.16693  648.6112  1000.0358  
318  0  660.44885  -132.99278  673.706  
319  0  170.3397  -305.08154  349.4143  
320  3  -34.089024  16.991484  38.089  
321  3  341.10477  101.10092  355.7722  
322  1  627.9802  -275.579  685.7864  
323  0  241.25908  -952.6851  982.7588  
324  0  -774.0049  -1092.8828  1339.2074  
325  1  -1665.102  -166.77081  1673.4327  
326  3  -1385.4213  1339.003  1926.7385  
327  3  130.26698  2238.7725  2242.559  
328  1  1994.0345  1515.0424  2504.3018  
329  1  2713.023  -528.9712  2764.1099  
330  0  1471.5833  -2599.017  2986.7117  
331  1  -1098.7838  -2971.4534  3168.1006  
332  1  -3214.8174  -1242.0784  3446.42  
333  1  -3177.6392  1760.5883  3632.7761  
334  1  -836.25464  3642.2861  3737.0537  
335  1  2370.3833  3131.0208  3927.0864  
336  0  4018.27  268.66138  4027.2415  
337  2  2904.4136  -2937.331  4130.8027  
338  2  -371.2945  -4140.5464  4157.1606  
339  0  -3444.2217  -2448.5825  4225.899  
340  0  -4138.657  965.0066  4249.6733  
341  0  -1934.1434  3714.5706  4187.952  
342  0  1556.0597  3843.3743  4146.426  
343  3  3905.2844  1319.4075  4122.1455  
344  3  3424.1057  -2032.1193  3981.7092  
345  1  673.8519  -3853.9539  3912.4207  
346  0  -2342.7776  -2897.4006  3726.0618  
347  1  -3556.2922  -92.598724  3557.4976  
348  1  -2283.7463  2501.4246  3387.126  
349  3  401.50305  3136.1165  3161.7134  
350  3  2428.9702  1630.0739  2925.2415  
351  3  2590.587  -750.7622  2697.181  
352  0  1020.444  -2190.5608  2416.5808  
353  0  -920.42334  -2001.5422  2203.0322  
354  0  -1768.0942  -539.823  1848.666  
355  2  -1408.6512  877.0981  1659.3973  
356  2  -170.73933  1265.7155  1277.1796  
357  3  643.66516  702.97217  953.1394  
358  0  673.3111  -42.808174  674.6706  
359  0  208.29349  -232.36685  312.05853  
360  2  10.425795  5.557632  11.814587  
361  1  269.14136  185.63835  326.9536  
362  3  660.1176  -180.71521  684.4072  
363  2  407.78052  -895.06116  983.5748  
364  1  -550.10254  -1117.3458  1245.4214  
365  0  -1530.3118  -405.40268  1583.0999  
366  0  -1511.8939  1070.6638  1852.6047  
367  2  -178.77332  2153.8994  2161.3057  
368  2  1628.9785  1753.4037  2393.323  
369  1  2662.1619  -97.728455  2663.955  
370  0  1777.0806  -2281.9048  2892.249  
371  1  -574.73236  -3099.4565  3152.2925  
372  0  -2860.5977  -1617.0139  3285.9934  
373  2  -3318.3281  1181.9619  3522.5469  
374  3  -1328.2405  3436.4294  3684.192  
375  2  1789.1216  3334.5437  3784.1958  
376  0  3809.5295  826.94794  3898.2507  
377  0  3180.6301  -2398.6123  3983.6853  
378  1  277.3814  -4056.1191  4065.5925  
379  2  -2927.0312  -2902.5593  4122.1797  
380  3  -4067.2937  306.12518  4078.7979  
381  1  -2404.5059  3268.6663  4057.8108  
382  0  922.4252  3899.3752  4006.9932  
383  2  3512.965  1844.3806  3967.7026  
384  5  3627.4233  -1422.9736  3896.544  
385  0  1266.8856  -3543.6497  3763.3032  
386  0  -1847.8702  -3134.0295  3638.2366  
387  1  -3430.2996  -633.7619  3488.3533  
388  2  -2568.86  2061.073  3293.488  
389  2  -111.12508  3092.3196  3094.3157  
390  0  2119.014  1946.3796  2877.258  
391  1  2656.146  -331.77408  2676.7864  
392  0  1392.0989  -2009.6188  2444.6895  
393  1  -591.7753  -2049.2822  2133.0156  
394  2  -1647.7026  -758.1119  1813.7413  
395  1  -1430.1072  611.748  1555.4556  
396  2  -373.42404  1222.143  1277.9198  
397  1  510.3694  801.617  950.2982  
398  3  634.2885  79.12452  639.20465  
399  4  240.36356  -202.78917  314.48065  
400  4  56.999954  -0.073707946  57.000004  
401  0  240.03436  202.7486  314.20294  
402  0  634.8883  -78.88032  639.7697  
403  2  510.70828  -801.0869  950.03326  
404  5  -372.7056  -1222.0773  1277.6472  
405  2  -1429.5657  -612.4114  1555.2189  
406  0  -1648.1082  757.1898  1813.7246  
407  0  -592.645  2048.519  2132.524  
408  4  1390.8997  2010.4471  2444.688  
409  2  2655.3306  333.07248  2676.1387  
410  1  2119.953  -1945.0416  2877.045  
411  0  -109.552925  -3092.2168  3094.157  
412  0  -2567.8674  -2062.7234  3293.7473  
413  2  -3429.8813  631.5181  3487.5352  
414  2  -1849.4312  3132.915  3638.0698  
415  2  1264.9977  3544.0518  3763.0469  
416  0  3626.6526  1424.933  3896.5425  
417  0  3514.1025  -1842.4111  3967.795  
418  2  924.3912  -3898.539  4006.6328  
419  0  -2402.297  -3270.0796  4057.641  
420  3  -4067.384  -308.12036  4079.038  
421  0  -2928.6545  2900.848  4122.1274  
422  0  275.1175  4056.5637  4065.8823  
423  0  3179.1594  2400.2878  3983.5205  
424  0  3810.0452  -825.0851  3898.3599  
425  2  1790.7423  -3333.9106  3784.4045  
426  2  -1325.9678  -3437.3064  3684.1914  
427  3  -3317.8357  -1183.7653  3522.6885  
428  0  -2861.6821  1615.2865  3286.0881  
429  3  -576.9381  3099.4578  3152.6965  
430  2  1775.9575  2282.6511  2892.1482  
431  1  2662.2065  99.33893  2664.0593  
432  4  1629.9325  -1752.8347  2393.556  
433  0  -177.46928  -2153.9883  2161.2869  
434  1  -1511.4634  -1071.3306  1852.6388  
435  0  -1531.0178  404.4756  1583.5454  
436  5  -550.40454  1117.2784  1245.4944  
437  3  407.5234  895.5284  983.8935  
438  3  659.85004  180.9272  684.2052  
439  2  269.8369  -185.736  327.5818  
440  0  10.514077  -5.872219  12.042789  
441  0  207.54332  232.64694  311.76727  
442  1  673.20514  43.265076  674.594  
443  0  643.83466  -702.39874  952.83105  
444  2  -169.81729  -1265.6074  1276.9495  
445  0  -1408.1395  -877.9877  1659.4335  
446  0  -1767.6583  538.62555  1847.8998  
447  3  -921.95087  2001.0251  2203.2012  
448  0  1019.2534  2190.8755  2416.3635  
449  2  2589.94  752.2466  2696.9731  
450  1  2429.743  -1629.3859  2925.4998  
451  1  403.35413  -3136.0623  3161.8953  
452  0  -2282.2334  -2502.405  3386.8303  
453  0  -3556.2886  90.534805  3557.4407  
454  3  -2344.1472  2896.1436  3725.946  
455  2  671.5227  3854.0269  3912.0923  
456  2  3422.7275  2033.8591  3981.4126  
457  2  3905.816  -1316.9811  4121.873  
458  0  1557.9343  -3842.276  4146.112  
459  2  -1931.9824  -3715.874  4188.1113  
460  2  -4138.228  -967.69775  4249.867  
461  3  -3445.11  2446.5264  4225.432  
462  0  -373.59503  4140.2446  4157.0664  
463  0  2902.453  2939.077  4130.6665  
464  2  4018.4143  -266.321  4027.23  
465  4  2372.106  -3129.7656  3927.1262  
