n v(n)    Re(T)       Im(T)        Mod(T) 
   
0  1  81458.0  0.0  81458.0  
1  1  8989.578  -64666.594  65288.445  
2  0  -41137.645  -24246.086  47751.215  
3  0  -31804.844  17217.805  36166.297  
4  3  -3223.796  28552.861  28734.28  
5  2  16997.207  16190.953  23474.498  
6  0  19555.5  -2905.7278  19770.201  
7  2  8438.53  -14700.457  16950.287  
8  1  -5313.682  -13726.934  14719.508  
9  2  -12366.867  -4143.093  13042.416  
10  0  -9815.186  6109.8076  11561.471  
11  1  -1377.4996  10269.5  10361.474  
12  1  6227.7705  6915.582  9306.471  
13  2  8352.179  -264.1959  8356.356  
14  2  4611.3755  -5937.985  7518.2744  
15  1  -1389.8783  -6672.5317  6815.7495  
16  0  -5506.349  -2957.3582  6250.268  
17  0  -5234.1846  2049.703  5621.207  
18  4  -1750.7616  4889.6865  5193.6694  
19  0  2339.6482  4018.5522  4650.0234  
20  1  4146.2446  734.90326  4210.87  
21  0  2937.3582  -2413.7463  3801.8738  
22  2  118.81378  -3483.4026  3485.4285  
23  2  -2370.6685  -2051.593  3135.1401  
24  0  -2761.0898  382.8168  2787.5017  
25  0  -1364.7328  2166.486  2560.4995  
26  1  640.7208  2135.9653  2229.9934  
27  2  1807.6793  795.51843  1974.982  
28  0  1587.0962  -778.58844  1767.788  
29  0  316.39786  -1483.9254  1517.2812  
30  0  -731.88257  -1105.4735  1325.7917  
31  2  -1159.4794  -131.18282  1166.8767  
32  3  -729.0362  601.5102  945.14984  
33  5  12.038044  818.6586  818.74713  
34  0  569.9841  425.86765  711.50903  
35  0  489.09485  -58.61128  492.5942  
36  0  221.27525  -334.55524  401.11087  
37  2  -83.15138  -284.59586  296.49445  
38  3  -142.85051  -94.81518  171.45316  
39  0  -90.785416  41.242554  99.71429  
40  2  -13.868475  11.068568  17.74395  
41  0  -146.71774  -31.501135  150.06139  
42  2  -207.70328  34.482357  210.54616  
43  0  -123.99103  230.47746  261.7129  
44  2  119.76414  257.0804  283.6085  
45  0  288.13693  95.17927  303.45013  
46  2  370.95096  -152.20935  400.9642  
47  1  168.41324  -394.726  429.15222  
48  0  -285.2226  -397.59137  489.31668  
49  0  -465.19836  -131.97462  483.55643  
50  1  -379.72998  399.0155  550.8251  
51  2  10.628868  542.78534  542.8894  
52  1  367.16895  277.533  460.25818  
53  1  520.88855  -82.23637  527.3402  
54  0  330.517  -433.50278  545.12946  
55  0  -138.77144  -563.3392  580.17975  
56  1  -437.6432  -237.2404  497.80975  
57  0  -510.83777  242.6107  565.52203  
58  0  -139.95149  493.40488  512.86914  
59  4  268.05084  467.61783  538.99695  
60  2  518.40137  39.597397  519.9115  
61  1  283.26398  -330.96365  435.6322  
62  0  28.877014  -436.28342  437.23804  
63  0  -342.8777  -283.12268  444.66116  
64  0  -383.91974  73.416824  390.87643  
65  0  -221.15259  319.14383  388.27985  
66  1  81.756096  380.38937  389.07602  
67  4  349.41052  174.54263  390.58014  
68  1  300.09775  -154.674  337.61325  
69  1  54.039394  -304.5784  309.33517  
70  0  -155.58713  -142.31837  210.85985  
71  2  -201.37334  -57.49238  209.41966  
72  3  -78.12622  158.23137  176.46777  
73  0  -39.856747  130.5963  136.54286  
74  1  27.647324  106.83252  110.352  
75  1  151.81233  12.880087  152.35774  
76  4  66.36086  -29.467388  72.60917  
77  2  -2.5360246  -121.665695  121.69212  
78  0  -0.1737678  -41.236557  41.236923  
79  0  -29.294544  9.725969  30.866888  
80  1  51.599308  -33.723778  61.64237  
81  1  -64.684814  14.715979  66.33766  
82  2  -43.81328  -20.542557  48.390083  
83  2  -17.994568  138.70197  139.86436  
84  0  6.935878  135.02605  135.20406  
85  2  125.12811  -4.448797  125.20718  
86  1  79.92067  -122.08005  145.91385  
87  0  58.787415  -51.74643  78.31764  
88  0  -92.26367  -106.77148  141.11249  
89  1  -211.77565  9.084992  211.97043  
90  0  -177.14694  159.08755  238.09639  
91  2  -51.473198  133.07687  142.68477  
92  1  104.73478  95.161385  141.50993  
93  1  292.79974  14.21926  293.1448  
94  3  93.20316  -109.65398  143.91255  
95  2  -93.61613  -152.64095  179.0621  
96  1  -160.7813  -122.39833  202.06924  
97  0  -99.21777  90.49333  134.2878  
98  0  -107.30752  102.18777  148.17976  
99  0  75.62751  214.32315  227.27502  
100  8  201.76137  71.73366  214.13399  
101  66  113.6264  -63.383636  130.10936  
102  123  -54.16166  -193.61967  201.05238  
103  174  -155.46884  -142.72124  211.04482  
104  225  -190.59686  -5.168833  190.66695  
105  276  -36.558567  157.15433  161.35059  
106  324  -46.33352  126.106384  134.34886  
107  370  134.23468  25.488304  136.6331  
108  415  196.49007  -63.819496  206.59448  
109  462  -8.230076  -261.56192  261.69138  
110  505  47.471733  -147.10635  154.57634  
111  551  -159.91443  16.57644  160.77129  
112  595  54.481197  50.330704  74.171295  
113  635  -98.96086  102.02455  142.13466  
114  677  142.3912  45.876434  149.59914  
115  714  11.288678  59.299305  60.364243  
116  752  97.82809  -70.62122  120.655266  
117  795  -102.19188  -56.921894  116.97556  
118  832  27.699162  67.853455  73.28939  
119  870  59.40269  26.207138  64.926834  
120  898  45.25038  -8.093087  45.968414  
121  883  43.633095  32.39488  54.344044  
122  866  -9.532383  59.634262  60.39132  
123  855  15.784932  106.02802  107.19657  
124  842  -23.110147  48.73192  53.93402  
125  829  52.05271  -8.557326  52.751423  
126  815  58.013767  -30.046207  65.33278  
127  803  -11.123783  -46.088593  47.41199  
128  790  20.15771  -23.70345  31.1157  
129  778  -39.452457  -10.252207  40.76278  
130  766  -134.56815  -16.47543  135.57295  
131  756  4.3517437  75.990906  76.11541  
132  747  24.726812  102.455894  105.39746  
133  735  81.62531  -5.5992346  81.81713  
134  727  118.84167  -139.52225  183.27519  
135  716  12.135424  -37.596058  39.506104  
136  705  -122.51812  -17.119059  123.708336  
137  693  -116.346466  33.614613  121.10509  
138  683  30.672092  99.6067  104.22222  
139  678  -69.276825  41.083107  80.542534  
140  667  144.07909  13.283045  144.6901  
141  660  56.791546  -18.247692  59.651134  
142  651  38.870655  -46.888092  60.905014  
143  641  -43.325924  -7.7596188  44.01531  
144  631  -75.21145  -37.92555  84.232475  
145  626  -3.9399626  103.9521  104.02674  
146  616  -16.74158  66.66914  68.73904  
147  606  97.529945  93.37032  135.01892  
148  599  134.8384  -5.0101194  134.93144  
149  594  40.39749  -96.00196  104.155334  
150  584  -36.603886  9.767157  37.884586  
151  575  -85.21816  19.247824  87.36483  
152  568  -68.03461  47.75112  83.11965  
153  560  -56.943054  1.9093356  56.975056  
154  555  55.105507  69.54303  88.72908  
155  546  -3.8800712  5.9680176  7.11844  
156  541  -7.335287  -9.98361  12.38866  
157  536  19.180864  -70.1444  72.71962  
158  524  -31.785387  23.837236  39.73065  
159  517  -17.802574  -60.696026  63.25298  
160  514  39.467438  55.11469  67.7887  
161  506  -38.591167  34.311108  51.63846  
162  499  -106.591515  -5.7073436  106.7442  
163  492  6.2021995  10.599346  12.280611  
164  486  -4.8474197  69.71321  69.88154  
165  479  -39.898785  54.624184  67.64403  
166  472  60.884045  14.67786  62.628323  
167  469  34.97876  16.700361  38.76101  
168  463  -4.494676  -47.801796  48.01264  
169  459  -135.33585  43.974426  142.30089  
170  449  41.895317  31.388449  52.34933  
171  439  0.91100174  18.449402  18.47188  
172  438  82.52987  18.425629  84.561714  
173  436  85.985245  6.174782  86.20667  
174  429  -3.7516727  35.879555  36.075165  
175  422  48.95703  -53.404705  72.448975  
176  417  -36.769707  -10.491037  38.23707  
177  411  -11.562638  1.9397137  11.72421  
178  408  -15.563006  92.83496  94.130424  
179  405  25.102058  90.216644  93.643776  
180  400  58.825054  -43.653008  73.2528  
181  391  26.966877  -50.261612  57.03895  
182  390  -28.60802  -87.088684  91.6671  
183  381  -23.635418  -37.056976  43.952843  
184  376  -51.827854  26.437157  58.18118  
185  371  -45.7872  46.169327  65.02364  
186  370  -12.844295  30.564947  33.154064  
187  366  48.10274  74.67841  88.829834  
188  362  83.80376  -9.1894455  84.30608  
189  357  -9.589925  -55.236584  56.06288  
190  352  35.259308  -53.470444  64.049255  
191  350  -9.920431  -19.181614  21.595121  
192  342  -54.994663  16.488905  57.413387  
193  338  -9.64338  71.09792  71.74893  
194  332  39.3055  -2.2326694  39.368862  
195  326  13.943896  0.66194844  13.9595995  
196  323  -43.070038  20.508337  47.70346  
197  320  -49.463852  32.34688  59.10155  
198  319  -47.077877  -27.381422  54.461624  
199  313  8.123813  -29.061857  30.17595  
200  317  -19.046377  36.980297  41.59696  
201  308  -28.164259  -49.569977  57.012352  
202  307  -20.110842  -14.33656  24.697832  
203  296  17.733835  58.998665  61.606262  
204  296  6.3505664  -0.013767958  6.350581  
205  294  9.493573  -52.67007  53.51882  
206  289  -17.498575  -22.77322  28.719675  
207  286  10.434244  -45.94847  47.118313  
208  282  24.79332  -20.22615  31.996965  
209  277  -52.74108  19.576637  56.257145  
210  276  -24.464926  27.979631  37.167088  
211  270  77.52984  28.528893  82.61219  
212  268  -36.42266  78.395355  86.44329  
213  265  84.31091  26.470074  88.368515  
214  262  45.173855  -43.367023  62.62089  
215  262  9.106254  -20.464127  22.398758  
216  259  -88.44205  -45.57525  99.49422  
217  252  -44.869835  8.96438  45.756554  
218  248  -27.02218  83.230125  87.50687  
219  248  70.904434  38.57002  80.71608  
220  242  38.674107  -43.921623  58.52175  
221  245  0.8893354  -44.279335  44.288265  
222  240  -17.450098  -19.069769  25.84883  
223  237  -41.008553  -92.19993  100.908516  
224  233  -49.951633  32.520752  59.605076  
225  227  12.227456  -15.806858  19.98418  
226  226  20.096445  11.284889  23.04812  
227  223  64.36995  27.804396  70.11829  
228  223  1.2578665  -25.879892  25.910442  
229  218  13.4592085  -41.44805  43.578564  
230  217  -42.431705  2.598351  42.51119  
231  215  43.569458  -13.7136135  45.6767  
232  211  -36.25597  -12.468515  38.340046  
233  207  11.036434  61.352314  62.337063  
234  207  -39.50008  23.025766  45.721355  
235  207  0.6313995  48.805313  48.809395  
236  203  -16.763567  -30.775593  35.045033  
237  202  -16.607843  -3.1672285  16.907152  
238  197  -50.885406  -64.69817  82.31147  
239  198  29.06681  26.082449  39.05347  
240  193  -73.55705  -29.156553  79.12487  
241  188  44.577866  -9.974167  45.680084  
242  188  1.4506849  -2.4224708  2.823624  
243  187  -19.497663  -43.798573  47.9424  
244  184  43.20418  27.77732  51.363224  
245  181  45.883583  0.0054478645  45.883583  
246  177  -27.977135  1.1223502  27.999638  
247  177  -15.99908  -51.549377  53.975075  
248  177  -41.476677  -37.877052  56.169262  
249  175  -41.847023  15.58132  44.65368  
250  171  -12.19582  20.197634  23.594118  
251  171  -41.05877  -8.425095  41.914253  
252  165  48.752155  -0.16863823  48.752445  
253  166  42.39985  4.110472  42.59863  
254  164  34.07583  -11.268789  35.890774  
255  165  -4.7315187  -47.57929  47.81397  
256  164  -24.691755  -0.68245554  24.701185  
257  157  -79.51031  6.872019  79.806725  
258  157  -0.85779357  42.359306  42.367992  
259  157  27.029041  68.726036  73.8501  
260  153  62.88032  -40.946983  75.03726  
261  149  -14.269988  -22.513727  26.655214  
262  150  -34.097153  -53.7235  63.630417  
263  149  -21.629211  30.59375  37.467323  
264  149  -25.866241  -17.284575  31.109789  
265  145  -4.227865  -11.251475  12.019589  
266  143  28.061771  0.3219576  28.063618  
267  142  30.621254  49.76722  58.433186  
268  139  31.4902  -10.670661  33.248997  
269  138  -8.243776  21.056292  22.612547  
270  135  8.599352  2.6428776  8.996313  
271  135  -21.250845  14.68666  25.83208  
272  131  -36.378445  27.47021  45.585125  
273  134  36.596947  -49.880634  61.866096  
274  132  38.826073  55.947105  68.0995  
275  129  27.013613  7.038206  27.915436  
276  126  -94.902756  -18.433577  96.67642  
277  125  3.6732092  -1.8020296  4.0914273  
278  124  -28.631144  -19.596489  34.695312  
279  122  -21.240372  24.010786  32.057312  
280  120  -14.001942  -2.3008132  14.189718  
281  125  3.9204452  22.218952  22.562174  
282  121  -36.204132  -51.13792  62.656414  
283  117  -62.251984  -31.221722  69.6427  
284  119  -3.2529764  -0.37924814  3.2750092  
285  116  26.316477  3.6894152  26.573835  
286  114  -16.836624  -15.948692  23.191221  
287  111  18.390244  -24.089142  30.306564  
288  111  -38.349815  -46.685658  60.41737  
289  111  26.6935  6.157875  27.39457  
290  107  -55.344654  12.404222  56.71768  
291  110  66.22082  -28.629139  72.14447  
292  108  -15.1983595  91.583374  92.8359  
293  104  -10.205955  22.065165  24.31117  
294  105  -12.338345  -83.47348  84.380424  
295  103  -31.707964  -52.501152  61.333237  
296  103  0.66114116  29.803272  29.810606  
297  102  5.9305596  8.926891  10.7173195  
298  101  -16.839176  22.709084  28.271193  
299  97  1.6251957  72.97054  72.98864  
300  97  -11.709635  11.596115  16.479849  
301  93  42.737934  -64.50021  77.37447  
302  98  -37.12062  -77.689514  86.10227  
303  92  27.713255  -51.343445  58.3453  
304  93  -35.007317  61.340454  70.62693  
305  90  2.2036295  -4.4444904  4.960794  
306  90  -15.121348  45.21149  47.673203  
307  90  33.82921  55.66906  65.14184  
308  89  12.724682  -18.967468  22.840366  
309  88  -16.709808  21.231642  27.018518  
310  88  -13.975834  33.904827  36.67235  
311  89  -31.411139  -25.341734  40.359177  
312  87  -9.678498  56.939205  57.75592  
313  82  -16.476973  -20.589458  26.37075  
314  82  -30.246264  -6.997901  31.045242  
315  81  43.759712  42.805305  61.21443  
316  78  0.62581134  -30.846071  30.852419  
317  79  -24.54378  -72.329636  76.38045  
318  80  22.105879  -42.427204  47.84075  
319  79  -17.29118  11.5118065  20.772738  
320  81  1.491054  13.081919  13.166618  
321  76  24.529028  41.20287  47.951534  
322  74  20.830395  -12.74838  24.421844  
323  76  -16.610472  16.984905  23.756994  
324  75  -3.0849352  7.2260838  7.857042  
325  74  1.8204334  -32.337616  32.388817  
326  71  10.772894  -12.726799  16.674131  
327  72  4.3282804  -18.59898  19.09597  
328  70  -9.444359  11.854111  15.15638  
329  73  -50.564983  -19.677212  54.258736  
330  73  -38.763092  -23.688498  45.428207  
331  70  21.327549  20.073622  29.288473  
332  68  -31.932955  -15.29236  35.40579  
333  65  73.0804  10.77119  73.8699  
334  67  -62.963425  16.890644  65.18962  
335  67  -12.333874  -21.00834  24.361338  
336  66  -4.541178  -32.042244  32.362442  
337  65  -1.0564489  -28.056297  28.076181  
338  66  24.725922  43.608574  50.13062  
339  62  -15.145223  37.59641  40.532307  
340  59  69.52043  4.075612  69.63979  
341  63  -1.3269329  -19.042763  19.088938  
342  59  -29.182446  -29.028378  41.16141  
343  67  -0.23440766  -10.61314  10.615728  
344  60  41.165756  2.3982067  41.235554  
345  59  37.723297  -6.9176927  38.352337  
346  59  -24.53771  42.09772  48.726967  
347  58  88.22493  32.125805  93.89198  
348  57  46.715744  -0.9688308  46.725792  
349  59  -44.427917  -7.865013  45.118713  
350  55  8.4938755  9.438784  12.697896  
351  54  -33.636032  48.31669  58.87177  
352  56  16.131212  -37.121986  40.4754  
353  58  -2.6849387  3.854705  4.6976213  
354  52  -10.056431  77.03283  77.68648  
355  51  -5.498744  -1.6867566  5.7516375  
356  51  -0.25046396  8.302222  8.306  
357  54  54.380566  48.30893  72.73925  
358  55  3.9347987  -28.240625  28.513428  
359  51  9.316608  30.972229  32.343132  
360  51  51.73419  1.5789785  51.75828  
361  51  -12.966902  23.307404  26.671625  
362  50  -53.876102  -25.768936  59.721626  
363  52  -9.694121  9.655113  13.682003  
364  51  43.87991  -32.53677  54.626804  
365  49  40.319607  -5.414891  40.68159  
366  47  3.4608984  -77.14291  77.220505  
367  49  36.2655  15.214742  39.327785  
368  45  -32.265766  37.69565  49.61896  
369  43  58.562035  -39.357098  70.55844  
370  47  -69.50118  -15.86132  71.288124  
371  49  -18.36952  -8.487421  20.235502  
372  49  -36.55101  10.071302  37.91316  
373  47  13.715805  -38.223347  40.6097  
374  45  -19.856993  -46.28535  50.365005  
375  44  -25.083942  47.208366  53.458714  
376  44  -11.79822  -50.276623  51.642395  
377  45  9.102492  13.850656  16.573956  
378  47  -16.49422  17.935928  24.367126  
379  44  74.40889  26.666035  79.04278  
380  43  21.553917  15.550928  26.578238  
381  39  59.833477  27.589764  65.88809  
382  39  -22.54707  -20.75813  30.647516  
383  38  15.24172  31.596796  35.08087  
384  43  -27.135267  35.43867  44.634315  
385  41  -12.0198  21.140139  24.318327  
386  40  -56.23124  15.009454  58.199966  
387  39  34.142292  38.41515  51.394745  
388  41  -32.27121  -28.141357  42.817833  
389  34  -10.245611  19.245918  21.803164  
390  35  -54.422222  -45.984127  71.24828  
391  35  -22.970245  25.706589  34.47406  
392  35  26.574436  5.5560226  27.149035  
393  35  -36.13651  -45.749832  58.300037  
394  39  8.9459915  58.448788  59.129448  
395  37  -12.247354  32.705326  34.923286  
396  34  16.091158  -6.9624863  17.532871  
397  32  -6.3774405  -25.457867  26.244518  
398  35  -16.093346  -0.8283361  16.114649  
399  38  -13.839487  9.997715  17.072952  
400  33  -15.999943  -0.054849073  16.000036  
401  39  -13.726673  -10.02868  16.999882  
402  34  -16.069689  0.90873134  16.095364  
403  32  -6.4132338  25.305592  26.105604  
404  31  16.084389  6.8952475  17.500057  
405  34  -12.133375  -32.89481  35.06119  
406  31  9.11274  -58.43489  59.141174  
407  33  -36.256943  45.74078  58.367672  
408  29  26.572042  -5.5036535  27.13602  
409  33  -22.921478  -25.838078  34.53984  
410  31  -54.42641  45.89709  71.19534  
411  27  -10.462309  -19.302912  21.955917  
412  31  -32.21977  27.902262  42.622173  
413  31  34.31023  -38.542202  51.60129  
414  30  -56.136463  -15.18772  58.1547  
415  29  -11.895591  -21.124144  24.243237  
416  28  -26.88103  -35.582497  44.594883  
417  23  15.353106  -31.562553  35.098614  
418  29  -22.648224  20.723238  30.698446  
419  27  59.986702  -27.480417  65.98164  
420  29  21.510197  -15.325597  26.41141  
421  29  74.51078  -26.535427  79.09479  
422  29  -16.71359  -17.902704  24.491856  
423  27  9.010163  -13.744763  16.434767  
424  25  -11.935978  50.22486  51.623676  
425  27  -25.058796  -47.184895  53.426186  
426  24  -19.835947  46.39055  50.453423  
427  25  13.710547  38.196163  40.582336  
428  31  -36.46821  -10.191409  37.865486  
429  29  -18.496416  8.595545  20.396097  
430  27  -69.46734  15.752564  71.23099  
431  24  58.52113  39.481285  70.59387  
432  23  -32.1933  -37.81726  49.66441  
433  21  36.35852  -15.045266  39.34847  
434  26  3.2598777  77.16113  77.229965  
435  27  39.975197  5.4994006  40.3517  
436  23  43.70996  32.586067  54.519836  
437  20  -9.76864  -9.65682  13.736102  
438  23  -53.936268  25.63237  59.717163  
439  21  -12.816699  -23.344118  26.631104  
440  24  51.718052  -1.4915605  51.739555  
441  24  9.142173  -30.933887  32.256546  
442  25  3.8213546  28.252619  28.509878  
443  25  54.449543  -48.161003  72.69274  
444  21  -0.24494314  -8.359453  8.363041  
445  20  -5.455264  1.6848167  5.709511  
446  19  -9.97299  -77.008286  77.651375  
447  19  -2.9819598  -3.9346204  4.9369345  
448  18  16.082077  37.124195  40.457867  
449  22  -33.451942  -48.38357  58.821785  
450  20  8.544218  -9.509128  12.783864  
451  23  -44.311005  7.505789  44.942207  
452  21  46.678066  1.1616803  46.69252  
