n v(n)    Re(T)       Im(T)        Mod(T) 
   
0  1418  1356099.0  0.0  1356099.0  
1  1423  19194.295  -175763.98  176808.94  
2  1420  -114583.33  -59586.215  129150.516  
3  1419  -82083.87  53083.18  97752.67  
4  1417  -1074.4779  77243.28  77250.75  
5  1424  50988.824  37380.453  63223.086  
6  1427  50745.926  -15530.282  53069.188  
7  1424  15626.629  -42663.883  45435.652  
8  1425  -21257.365  -33415.98  39604.336  
9  1421  -34662.65  -3363.8042  34825.484  
10  1421  -21522.686  22424.031  31081.557  
11  1416  3737.5261  27540.803  27793.252  
12  1420  21311.77  12802.273  24861.41  
13  1421  20835.518  -7761.46  22234.186  
14  1421  6319.051  -19198.486  20211.688  
15  1421  -9984.137  -15194.839  18181.477  
16  1418  -16397.268  -1533.196  16468.791  
17  1413  -10515.024  10740.589  15030.834  
18  1419  1639.5474  13533.379  13632.332  
19  1416  10361.854  6575.6562  12272.215  
20  1421  10502.436  -3549.0571  11085.89  
21  1422  3502.596  -9365.174  9998.732  
22  1423  -4735.4287  -7777.8394  9105.991  
23  1422  -8102.0234  -1177.1943  8187.0977  
24  1420  -5350.8223  5004.3247  7326.2925  
25  1419  568.4015  6530.953  6555.641  
26  1420  4797.835  3287.9854  5816.3623  
27  1416  5006.246  -1363.2593  5188.543  
28  1421  1716.7896  -4128.1104  4470.868  
29  1422  -1725.7928  -3448.1003  3855.873  
30  1421  -3272.1836  -642.8882  3334.74  
31  1420  -2310.3254  1934.6713  3013.396  
32  1421  13.998901  2508.1267  2508.1658  
33  1421  1573.4921  1283.7106  2030.7117  
34  1420  1587.8853  -287.40942  1613.6864  
35  1416  535.2151  -1246.9333  1356.9443  
36  1422  -378.59412  -923.4448  998.04  
37  1421  -727.6398  -158.92993  744.7942  
38  1424  -388.54102  249.47684  461.7389  
39  1422  -30.737305  226.54562  228.6213  
40  1422  -104.04053  -1.4855347  104.05113  
41  1420  -210.20398  27.726776  212.02473  
42  1423  -232.39478  375.5169  441.611  
43  1415  243.04236  499.45636  555.4514  
44  1417  585.8296  185.0456  614.36  
45  1420  624.79626  -399.5232  741.6125  
46  1419  -11.35022  -906.9536  907.02466  
47  1420  -722.47485  -675.84045  989.308  
48  1423  -947.03796  151.0304  959.00525  
49  1420  -517.6394  873.5094  1015.3666  
50  1421  234.20386  1025.248  1051.6582  
51  1423  1058.2161  335.9759  1110.2706  
52  1426  853.8644  -634.6344  1063.8822  
53  1421  135.73706  -1072.5919  1081.1466  
54  1424  -860.97986  -786.18243  1165.9199  
55  1419  -1065.2711  102.12543  1070.1552  
56  1422  -708.5012  927.1362  1166.857  
57  1419  219.3999  1004.6064  1028.2852  
58  1417  852.88184  431.70917  955.9185  
59  1419  836.8714  -317.4414  895.0546  
60  1421  204.37878  -953.3283  974.99005  
61  1425  -545.2523  -702.8906  889.58154  
62  1424  -763.39294  9.565063  763.4529  
63  1420  -574.562  616.6982  842.87494  
64  1424  121.27966  620.4335  632.17596  
65  1419  622.8927  449.35284  768.05817  
66  1419  623.2187  -187.42029  650.7902  
67  1421  259.93658  -597.4732  651.5683  
68  1419  -332.95325  -557.4716  649.33234  
69  1423  -456.19763  -126.190735  473.32904  
70  1425  -266.28198  303.9765  404.11362  
71  1421  -16.558472  455.56122  455.86206  
72  1421  310.22058  256.48053  402.51593  
73  1418  217.25983  25.167786  218.7127  
74  1422  123.25073  -231.65393  262.401  
75  1422  -60.650024  -78.71741  99.37231  
76  1423  -137.9552  48.861023  146.35245  
77  1419  -26.987427  110.73108  113.972336  
78  1420  77.67529  56.59845  96.10846  
79  1423  55.779053  -16.230469  58.092434  
80  1419  6.557129  63.72577  64.06223  
81  1422  -17.79004  68.733826  70.998764  
82  1420  36.47168  124.432556  129.66743  
83  1426  54.94043  -62.454895  83.180916  
84  1422  73.04541  -13.593384  74.29948  
85  1424  61.675293  -143.18915  155.90694  
86  1424  -165.49182  -95.47516  191.05771  
87  1421  -206.4148  105.26898  231.70805  
88  1421  -124.7793  261.40143  289.65598  
89  1421  -5.5649414  188.78961  188.87161  
90  1424  178.07  -15.233765  178.72044  
91  1421  159.1521  -72.14929  174.74242  
92  1422  -33.141968  -164.74939  168.04985  
93  1420  -109.77722  -103.69299  151.00754  
94  1425  -205.6549  144.53705  251.36606  
95  1424  -75.024414  147.31055  165.31503  
96  1421  95.206726  280.0042  295.74765  
97  1423  65.816345  102.90704  122.154205  
98  1422  64.03906  4.578186  64.20251  
99  1424  -161.27191  235.92133  285.77527  
100  1420  -54.432312  -295.726  300.6938  
101  1432  -106.69989  38.68524  113.496315  
102  1464  -88.90137  122.94702  151.72153  
103  1526  50.020874  147.05469  155.32922  
104  1618  55.051086  132.22217  143.22473  
105  1731  128.00201  2.4719238  128.02588  
106  1857  112.25751  -184.99182  216.3879  
107  1984  124.06464  -71.57764  143.23195  
108  2124  -45.995422  -191.67126  197.1128  
109  2259  -91.36786  172.05469  194.8099  
110  2387  37.300232  64.713745  74.69388  
111  2512  -2.9923096  86.75244  86.80403  
112  2638  60.630676  41.100098  73.248184  
113  2757  107.43573  24.023926  110.08899  
114  2876  -4.7836914  23.601807  24.081715  
115  2995  -125.43536  33.65686  129.8723  
116  3109  15.064148  -82.76575  84.12549  
117  3221  14.158447  -78.37537  79.64396  
118  3340  106.52472  22.020874  108.77699  
119  3445  59.960815  -51.6438  79.13521  
120  3546  -19.44336  65.831665  68.64294  
121  3650  21.098633  42.428833  47.385212  
122  3715  -104.24933  -5.0393066  104.371056  
123  3759  76.174194  -37.581787  84.94056  
124  3773  -49.409607  -74.714966  89.57475  
125  3766  47.022278  -63.58838  79.085884  
126  3737  -8.464783  -17.643433  19.568935  
127  3706  -45.471252  -10.713135  46.71623  
128  3673  28.72522  -13.934692  31.926695  
129  3628  -17.6427  66.90039  69.18762  
130  3591  109.793335  -121.104004  163.46484  
131  3560  -7.273987  -18.772705  20.132694  
132  3530  -16.737305  -56.118164  58.56096  
133  3496  32.172974  -37.951294  49.7534  
134  3470  -57.61725  -57.49353  81.39566  
135  3439  33.10034  38.40796  50.703094  
136  3409  45.821533  120.201294  128.63889  
137  3376  118.852295  -2.3203125  118.87494  
138  3348  12.717224  -64.33008  65.57505  
139  3324  102.471924  99.04065  142.51157  
140  3296  -22.898193  74.476074  77.9167  
141  3272  -110.174866  -6.2998047  110.35483  
142  3253  -118.361694  -0.17858887  118.36183  
143  3233  6.5128174  64.86914  65.19527  
144  3206  45.38501  20.29419  49.715725  
145  3177  -39.350403  43.233276  58.459988  
146  3154  25.322632  -19.099854  31.718134  
147  3126  -87.40369  -94.835205  128.96945  
148  3103  -85.91016  55.09424  102.058464  
149  3086  -18.369446  4.5964355  18.93578  
150  3061  20.67102  56.713013  60.36271  
151  3042  -60.414062  8.989258  61.079174  
152  3020  30.384521  -67.20569  73.75516  
153  2998  -10.65686  -27.283691  29.2911  
154  2981  -86.29913  2.1899414  86.32692  
155  2959  81.65799  -92.68518  123.52559  
156  2936  -6.753296  60.570435  60.94575  
157  2919  25.891449  -30.049194  39.665115  
158  2903  -59.98761  37.675415  70.837494  
159  2882  -34.394806  12.939941  36.748398  
160  2864  3.4440613  15.171875  15.557871  
161  2844  24.503296  -29.201172  38.11981  
162  2825  18.929077  -47.724976  51.341827  
163  2805  4.8909607  -69.949585  70.12037  
164  2790  -50.592834  60.11328  78.56998  
165  2774  -60.58902  -62.44934  87.0112  
166  2757  -2.5698242  7.55188  7.977148  
167  2739  -20.159027  -17.656006  26.79778  
168  2723  91.10477  97.18115  133.20757  
169  2705  70.034485  54.509644  88.74757  
170  2689  44.889374  -19.728027  49.03316  
171  2674  13.00177  4.4661865  13.747467  
172  2654  10.421631  -2.2246094  10.65642  
173  2639  -3.6127625  -61.07483  61.181587  
174  2626  -16.849762  10.096924  19.64338  
175  2613  35.580383  78.739136  86.40495  
176  2599  -106.365326  -67.63623  126.04857  
177  2581  -2.572342  13.593384  13.834632  
178  2568  54.94249  16.249756  57.29513  
179  2552  -141.47612  -16.156738  142.39569  
180  2544  -70.57358  -74.24255  102.43333  
181  2524  -5.726593  18.50708  19.372814  
182  2511  -36.310867  23.988403  43.519222  
183  2503  52.64731  1.1702881  52.660313  
184  2486  5.1822968  -2.6202393  5.807052  
185  2475  -26.48674  -46.7041  53.691902  
186  2461  -1.9072266  32.687134  32.74273  
187  2447  -21.668167  -48.419434  53.046688  
188  2440  10.377136  38.366333  39.74494  
189  2424  -37.24421  -36.136597  51.89398  
190  2408  -10.931892  47.044434  48.29788  
191  2401  -12.041061  31.006226  33.262188  
192  2388  -14.407768  -3.6687012  14.86752  
193  2375  21.36164  -21.010376  29.96257  
194  2365  -76.00311  69.65051  103.090576  
195  2352  -31.711826  -64.147705  71.55814  
196  2338  43.944077  -29.145996  52.73112  
197  2332  13.021904  -16.824097  21.274872  
198  2314  27.88647  -43.88672  51.99711  
199  2311  -85.30847  7.984253  85.68129  
200  2298  -2.5867805  77.84558  77.88855  
201  2282  -39.30287  -57.831055  69.92243  
202  2277  -19.74558  -7.293457  21.049524  
203  2263  -55.33406  15.250488  57.397175  
204  2257  -30.634304  -11.492065  32.718925  
205  2246  -42.32839  7.2677  42.94778  
206  2232  -29.540627  -69.46802  75.488106  
207  2228  -47.967697  16.873291  50.848873  
208  2213  -51.168106  69.69446  86.46093  
209  2207  -70.61762  -32.766235  77.84905  
210  2195  -102.15059  -25.19983  105.213  
211  2188  -11.571426  101.66345  102.31986  
212  2176  7.768692  21.871582  23.210314  
213  2166  -20.546265  -72.52734  75.38146  
214  2160  16.529465  -71.07251  72.969345  
215  2156  -17.299957  -61.516235  63.90255  
216  2145  -52.800903  -58.54895  78.84107  
217  2141  -13.705444  -54.010376  55.722164  
218  2131  146.46837  48.914917  154.42038  
219  2116  14.964462  -47.322998  49.632664  
220  2111  -42.030533  23.170044  47.993923  
221  2096  42.32515  -35.074463  54.96941  
222  2093  -9.562744  8.62439  12.877351  
223  2088  7.2523193  11.536377  13.626596  
224  2080  46.031372  92.069336  102.93517  
225  2070  -11.052429  -42.065308  43.49306  
226  2064  -59.82379  -51.62085  79.01644  
227  2057  15.932739  38.85437  41.994217  
228  2048  -13.383057  43.66284  45.66782  
229  2043  -65.87317  59.655884  88.87125  
230  2029  -26.009003  -38.849365  46.751915  
231  2027  16.630096  -14.130005  21.822401  
232  2018  1.1347046  -6.7039795  6.7993307  
233  2012  -82.632324  -98.86426  128.84969  
234  2006  36.480743  61.461914  71.47315  
235  2000  13.004639  1.4863281  13.0893  
236  1988  -16.45633  88.48767  90.00488  
237  1978  -60.80902  -13.143555  62.21326  
238  1978  53.290955  -55.482544  76.930084  
239  1970  -68.291565  -22.845215  72.0114  
240  1965  -21.603241  20.912231  30.06695  
241  1961  -20.39798  45.51245  49.87445  
242  1955  -35.73819  96.976685  103.35229  
243  1945  26.511993  83.09204  87.21911  
244  1936  -54.65213  -34.69043  64.73238  
245  1931  2.9442444  -27.424927  27.582516  
246  1934  -44.460144  17.509644  47.783806  
247  1922  -40.36261  21.880615  45.91189  
248  1918  -3.2685547  32.702637  32.865574  
249  1908  -13.129211  65.98767  67.28111  
250  1906  35.249756  -26.083862  43.851032  
251  1899  41.990845  35.844604  55.2093  
252  1893  -25.084534  -77.4397  81.40111  
253  1894  28.774475  18.169434  34.03085  
254  1879  -39.196106  -53.569702  66.37807  
255  1878  -74.42047  68.87402  101.40038  
256  1875  -41.435852  -33.4635  53.261017  
257  1870  -18.833801  28.750488  34.370083  
258  1859  -51.54773  -0.85388184  51.554802  
259  1855  31.032043  -111.072754  115.32625  
260  1850  -93.42706  5.5252686  93.5903  
261  1846  -46.644043  18.601929  50.216515  
262  1841  15.677063  5.872925  16.741014  
263  1840  106.788025  13.986084  107.70001  
264  1837  13.682251  10.040161  16.970823  
265  1829  30.78424  -29.857178  42.884968  
266  1824  -6.7906494  -68.5426  68.87816  
267  1818  -21.22638  16.733398  27.02898  
268  1814  -14.361694  -9.43042  17.181126  
269  1813  27.490906  -27.38269  38.801567  
270  1803  38.494263  -83.28174  91.74779  
271  1803  24.256958  -3.1206055  24.456863  
272  1794  94.59943  27.321533  98.46582  
273  1793  -15.835022  -21.128784  26.404043  
274  1786  -56.092102  -54.29431  78.06533  
275  1789  90.159424  32.565796  95.86059  
276  1777  37.514343  49.255615  61.914795  
277  1775  -25.797607  -9.480835  27.484592  
278  1769  16.02063  13.211304  20.765335  
279  1772  -70.02594  99.74341  121.87034  
280  1766  24.733948  10.961304  27.05399  
281  1758  -56.26819  -78.783936  96.81435  
282  1757  -18.402649  -13.133789  22.608713  
283  1757  -6.458679  33.7063  34.319515  
284  1749  81.875916  44.666016  93.26692  
285  1745  -24.631165  50.405518  56.101788  
286  1737  29.346863  -86.361694  91.21174  
287  1734  -23.571594  18.490723  29.958752  
288  1734  -37.63977  -38.320435  53.71413  
289  1729  93.80676  -12.384399  94.62073  
290  1730  -19.126282  -42.329346  46.449844  
291  1725  39.318115  24.47522  46.313614  
292  1721  -65.58661  10.135742  66.36517  
293  1715  -61.322327  66.58911  90.52368  
294  1711  -33.53351  -49.619507  59.88816  
295  1709  -41.00946  -2.7320557  41.100365  
296  1711  -30.81366  38.863525  49.596928  
297  1711  120.61072  59.18579  134.34993  
298  1701  7.664856  67.15869  67.59467  
299  1700  -48.756836  38.18512  61.93006  
300  1698  -66.637146  71.69653  97.88208  
301  1689  4.279236  -4.22876  6.016167  
302  1688  -11.14386  -71.28845  72.154205  
303  1686  2.5842285  67.38068  67.430214  
304  1683  -80.197815  53.543945  96.429474  
305  1679  4.4560547  60.5838  60.747456  
306  1681  29.16809  -13.050293  31.954462  
307  1672  -55.84784  -34.51062  65.650314  
308  1668  -88.67828  14.860779  89.914856  
309  1663  62.634644  14.96637  64.39791  
310  1665  23.659424  19.841675  30.878153  
311  1668  -34.63794  -49.088074  60.078495  
312  1660  52.74341  30.503906  60.929104  
313  1662  7.088257  -68.00769  68.37608  
314  1653  -10.104248  -56.75995  57.652298  
315  1653  -10.223145  -0.1852417  10.224823  
316  1648  -26.272827  -46.815308  53.68365  
317  1644  85.861694  12.646606  86.788055  
318  1643  -75.656006  -75.06189  106.57447  
319  1644  7.588379  20.578796  21.933315  
320  1643  -34.22278  -35.62848  49.402298  
321  1639  -80.86865  9.972351  81.4812  
322  1636  -10.841187  -30.404419  32.279408  
323  1633  14.423462  -50.769104  52.7782  
324  1629  46.392334  3.680664  46.538113  
325  1625  51.424927  -57.150024  76.880745  
326  1627  -11.401855  -102.00372  102.638985  
327  1622  52.059326  -33.641296  61.983143  
328  1626  0.68444824  31.198853  31.20636  
329  1618  73.40271  -21.777527  76.565125  
330  1620  -64.24365  -25.254944  69.0294  
331  1615  -80.44568  72.093506  108.023056  
332  1615  46.63452  -32.856873  57.046932  
333  1610  -10.674561  -6.44281  12.468201  
334  1608  -6.5561523  -27.301575  28.077734  
335  1608  -11.587036  14.529114  18.583717  
336  1604  42.939453  106.68512  115.00223  
337  1605  -7.0405273  37.534912  38.18951  
338  1606  12.25647  23.433105  26.444876  
339  1597  -3.015747  -16.476807  16.750519  
340  1597  -6.644409  4.0004272  7.755746  
341  1595  -59.802612  -24.124634  64.485275  
342  1588  -24.900146  49.805298  55.682896  
343  1594  -104.12659  -48.494873  114.86557  
344  1591  -81.16919  55.51111  98.335754  
345  1593  50.940918  15.916138  53.369473  
346  1590  -16.276611  -29.009094  33.263428  
347  1585  -109.821045  -2.164917  109.842384  
348  1587  -76.677734  -39.606934  86.302864  
349  1581  -40.462646  -69.78259  80.66496  
350  1585  -21.139893  -66.82355  70.08767  
351  1583  -61.399048  -42.09204  74.44181  
352  1583  1.0426025  -71.50806  71.515656  
353  1575  58.832886  -22.48816  62.98433  
354  1568  19.368042  68.911285  71.58133  
355  1572  -11.116699  47.8244  49.099434  
356  1574  30.4906  12.12323  32.812336  
357  1572  -14.123047  -53.355835  55.193348  
358  1567  48.051636  -112.49539  122.32813  
359  1568  -60.79297  -56.10385  82.725006  
360  1563  22.58545  -54.69507  59.174767  
361  1561  93.57117  -30.999725  98.57255  
362  1561  -84.42212  18.556  86.43737  
363  1561  7.7730713  135.43884  135.66171  
364  1555  82.6322  -61.175995  102.81335  
365  1558  -0.76867676  -14.026611  14.047658  
366  1555  -5.111328  -27.265411  27.740374  
367  1552  52.334595  -32.705383  61.713467  
368  1548  -0.63964844  105.66104  105.66298  
369  1553  -76.15918  -21.48413  79.13146  
370  1547  36.29492  85.26935  92.672455  
371  1549  3.8740234  -21.947266  22.286554  
372  1546  -83.37488  40.119995  92.52559  
373  1545  -17.571167  -4.0224915  18.025713  
374  1544  -52.722046  15.259155  54.885845  
375  1539  -10.937866  20.343231  23.097271  
376  1542  -50.084595  -17.11908  52.929478  
377  1542  17.878174  -17.028778  24.690248  
378  1545  33.17993  -6.750473  33.85966  
379  1542  16.441895  -19.674835  25.640497  
380  1537  -86.743164  101.5219  133.53304  
381  1532  18.957397  -27.990372  33.805973  
382  1531  -32.968872  65.13902  73.00712  
383  1531  -81.35156  11.931717  82.22191  
384  1529  46.71057  -67.858154  82.38086  
385  1529  -36.557373  17.08316  40.351902  
386  1530  77.082275  25.537659  81.20252  
387  1527  -24.519897  33.34433  41.389248  
388  1530  -32.933228  -28.816635  43.760666  
389  1529  -47.78772  102.92136  113.47454  
390  1524  -46.8739  39.3229  61.183765  
391  1525  -130.37329  -63.055283  144.82115  
392  1524  -49.694946  5.079582  49.953876  
393  1524  -11.794556  -17.025795  20.712055  
394  1521  -31.078247  16.403244  35.141483  
395  1523  6.5080566  20.405647  21.418339  
396  1518  33.829346  -67.11516  75.15896  
397  1513  81.1145  53.687897  97.27257  
398  1515  45.531006  85.52798  96.89225  
399  1514  45.63855  20.445972  50.00915  
400  1513  -30.999512  -1.3684571  31.029701  
401  1514  46.739502  -22.87083  52.03514  
402  1513  46.523804  -87.56664  99.15836  
403  1515  78.77319  -59.66066  98.81604  
404  1515  33.167114  65.07759  73.042114  
405  1505  8.138184  -25.375599  26.648659  
406  1508  -29.880493  -20.615776  36.30226  
407  1510  -13.665283  14.302559  19.781384  
408  1510  -48.85376  -6.162285  49.24087  
409  1511  -129.93896  60.031242  143.1359  
410  1508  -43.86084  -40.576027  59.751045  
411  1505  -52.634766  -109.88835  121.84363  
412  1503  -30.971558  27.055267  41.124504  
413  1501  -23.138794  -35.269638  42.182358  
414  1505  77.674194  -27.618958  82.438385  
415  1501  -37.451904  -19.96196  42.439663  
416  1502  46.663086  66.07561  80.89147  
417  1503  -80.81702  -16.595062  82.50325  
418  1499  -33.757935  -67.30684  75.298134  
419  1498  18.849121  23.221298  29.908495  
420  1500  -88.12634  -105.584656  137.52953  
421  1495  18.04309  18.26381  25.67333  
422  1489  32.131348  2.7189026  32.246178  
423  1501  17.61438  13.931976  22.458101  
424  1496  -48.115967  11.746338  49.52901  
425  1498  -9.369385  -22.860748  24.706257  
426  1494  -49.966064  -17.649902  52.99176  
427  1493  -16.224487  0.33068848  16.227856  
428  1491  -82.19617  -43.695404  93.08865  
429  1491  2.3930664  19.710876  19.855614  
430  1485  36.556396  -88.994354  96.21001  
431  1489  -75.600586  17.92215  77.6959  
432  1489  -1.8453369  -108.5654  108.581085  
433  1491  51.058594  32.39691  60.46933  
434  1487  -6.5322266  20.377045  21.398457  
435  1484  -3.1738281  9.571594  10.084077  
