n v(n)    Re(T)       Im(T)        Mod(T) 
   
0  519  442182.0  0.0  442182.0  
1  516  -44.919983  -0.2036004  44.920444  
2  565  -56.07257  11.146913  57.169807  
3  598  -75.17145  -14.953103  76.64426  
4  562  -51.80481  -15.704327  54.13284  
5  513  -84.89404  -8.881737  85.35739  
6  522  -66.92975  1.1261787  66.939224  
7  575  -82.41443  -4.7839794  82.55316  
8  595  -62.67987  -3.4841843  62.776634  
9  552  -81.164734  -27.213215  85.60533  
10  510  -73.14978  -3.981556  73.25806  
11  532  -66.909  -19.634686  69.730446  
12  586  -62.902588  -4.750225  63.081696  
13  591  -79.03784  -4.1732483  79.14794  
14  539  -69.20514  -12.220619  70.27585  
15  510  -108.12451  -18.723167  109.73362  
16  542  -62.707092  -11.423874  63.73919  
17  592  -77.02374  6.6707  77.31206  
18  583  -75.41522  3.6087494  75.50151  
19  529  -53.32367  -13.944069  55.116703  
20  511  -63.09601  -26.052765  68.263115  
21  555  -80.57013  5.540024  80.760376  
22  596  -56.870605  3.9605865  57.00835  
23  574  -51.02765  9.487251  51.90211  
24  520  -59.2713  -22.747116  63.486366  
25  516  -55.599915  1.8736877  55.631477  
26  565  -70.4259  -29.649818  76.41282  
27  598  -59.229187  -5.642906  59.497387  
28  565  -67.545166  0.05872345  67.54519  
29  514  -75.00897  -19.308182  77.454185  
30  523  -74.40485  -31.859116  80.93877  
31  576  -81.31555  -35.999664  88.92803  
32  595  -92.359985  8.275909  92.73003  
33  553  -73.80676  2.789032  73.859436  
34  510  -55.962646  -15.185471  57.986347  
35  531  -59.024292  -10.084869  59.879642  
36  584  -83.6767  -8.037888  84.06187  
37  591  -40.98535  -38.01114  55.89853  
38  542  -39.211365  -26.295105  47.211903  
39  509  -69.91937  -7.5178223  70.32237  
40  543  -76.6333  -27.957504  81.5738  
41  592  -69.07507  -14.735596  70.62934  
42  584  -62.141846  -17.147354  64.46426  
43  531  -70.39374  -7.458267  70.78774  
44  510  -73.426575  -19.539886  75.98203  
45  552  -66.70215  -2.5062714  66.749214  
46  595  -56.287598  -16.133194  58.554024  
47  576  -57.645752  -32.387848  66.12114  
48  521  -95.12683  -18.922012  96.9905  
49  515  -66.03461  -24.366516  70.386765  
50  564  -104.10144  -32.01602  108.91343  
51  596  -56.025757  7.9557495  56.587803  
52  564  -46.526093  -11.014923  47.812195  
53  514  -49.64853  -0.25886536  49.6492  
54  521  -64.10635  -32.63327  71.93438  
55  574  -72.36798  -18.746246  74.756584  
56  595  -57.633087  -13.967789  59.301533  
57  554  -67.00775  -13.28241  68.3115  
58  510  -68.98352  -41.131195  80.31502  
59  531  -72.77753  -33.75244  80.22341  
60  584  -63.203796  -26.400879  68.49618  
61  591  -64.55963  -27.100266  70.01693  
62  543  -78.47928  -18.282227  80.58062  
63  509  -58.740845  -31.53595  66.67085  
64  541  -73.936005  -23.202332  77.491165  
65  591  -54.868042  -57.89923  79.7673  
66  585  -64.625  -35.702606  73.831345  
67  531  -75.4877  -38.278625  84.63833  
68  509  -72.085815  -16.093475  73.86044  
69  552  -64.40491  -39.75714  75.68767  
70  599  -66.76727  -59.551575  89.46652  
71  576  -77.75281  -51.9205  93.49458  
72  522  -79.626434  -34.655212  86.840965  
73  514  -61.880463  -37.837036  72.5316  
74  562  -68.71991  -35.700684  77.44007  
75  597  -58.066498  -29.82904  65.28009  
76  566  -67.159485  -34.18399  75.35875  
77  515  -65.18533  -37.940887  75.423065  
78  521  -63.014984  -18.040833  65.54662  
79  574  -71.40137  -45.441986  84.63527  
80  595  -59.695953  -43.49933  73.86338  
81  552  -67.3913  -46.55008  81.90542  
82  511  -56.787384  -50.14505  75.758385  
83  530  -22.550781  -20.598328  30.542248  
84  582  -109.02835  -66.20154  127.55322  
85  593  -64.08798  -60.256683  87.96668  
86  544  -58.56607  -67.880646  89.653595  
87  509  -78.45175  -63.508972  100.93595  
88  541  -94.31949  -40.42047  102.61569  
89  590  -68.8587  -33.363647  76.51571  
90  586  -77.042786  -52.195496  93.058914  
91  533  -68.805084  -50.84427  85.55279  
92  510  -87.40213  -63.66098  108.12887  
93  551  -66.12714  -40.152893  77.36313  
94  594  -93.16031  -44.784943  103.36602  
95  578  -102.294586  -63.427185  120.36275  
96  522  -82.592224  -61.760223  103.13002  
97  513  -67.77109  -75.256226  101.27399  
98  563  -81.62451  -69.80527  107.40268  
99  596  -98.85571  -53.868225  112.57992  
100  564  -99.02017  -54.149567  112.85907  
101  516  -43.733643  -52.557526  68.37342  
102  521  -69.99747  -47.341095  84.5034  
103  574  -54.02295  -114.715546  126.79958  
104  595  -71.007355  -51.242523  87.56621  
105  555  -98.42688  -62.75537  116.73083  
106  510  -98.37274  -63.68396  117.18721  
107  530  -90.1008  -74.53613  116.934975  
108  584  -92.342255  -67.09482  114.1438  
109  591  -101.16666  -71.37128  123.808525  
110  543  -88.359375  -54.901825  104.02687  
111  508  -97.5137  -63.940247  116.60736  
112  540  -79.29483  -66.075745  103.21664  
113  590  -92.25244  -63.50049  111.99475  
114  585  -86.92084  -83.32962  120.41203  
115  531  -86.23877  -81.48874  118.64881  
116  511  -71.87317  -106.00232  128.07124  
117  552  -84.055786  -87.599335  121.40436  
118  594  -102.628845  -82.853455  131.89911  
119  576  -111.78235  -70.16678  131.97981  
120  522  -110.44266  -106.25638  153.25795  
121  515  -100.092316  -111.947845  150.16922  
122  562  -102.04538  -84.609436  132.55948  
123  597  -103.69769  -90.84653  137.86336  
124  565  -81.20239  -101.728516  130.16344  
125  516  -102.088745  -95.367676  139.70363  
126  522  -121.302795  -93.4317  153.11385  
127  574  -107.05197  -144.23978  179.62527  
128  595  -109.41849  -108.65085  154.19926  
129  553  -156.8533  -144.98029  213.59364  
130  510  -146.03339  -120.07645  189.06111  
131  529  -134.32773  -118.95465  179.42728  
132  584  -108.80765  -132.44843  171.41089  
133  592  -120.23297  -131.7109  178.336  
134  543  -116.276276  -140.27548  182.20149  
135  509  -120.044586  -143.23148  186.88489  
136  541  -129.86273  -146.81693  196.00903  
137  590  -131.30191  -138.40115  190.77492  
138  585  -136.78577  -161.05304  211.30176  
139  533  -141.36957  -157.68527  211.77818  
140  511  -136.58467  -183.44894  228.71136  
141  552  -152.22758  -181.40509  236.81438  
142  595  -150.3726  -177.03088  232.27538  
143  576  -161.40361  -202.34604  258.834  
144  521  -170.02739  -192.89325  257.13248  
145  514  -157.84474  -224.69778  274.598  
146  562  -152.77654  -199.5394  251.30984  
147  595  -182.20645  -236.13171  298.25723  
148  565  -191.61632  -268.74857  330.06454  
149  516  -153.73453  -276.25024  316.14633  
150  521  -164.52808  -282.38892  326.82257  
151  573  -187.6966  -305.8238  358.82892  
152  596  -218.16748  -316.09125  384.07126  
153  554  -233.09114  -352.29156  422.42258  
154  509  -273.60468  -379.73767  468.0387  
155  529  -260.30466  -394.12433  472.3267  
156  583  -280.82996  -460.98883  539.7927  
157  591  -309.26215  -497.10785  585.4565  
158  542  -329.6413  -531.7028  625.59674  
159  509  -345.659  -604.92114  696.71356  
160  539  -425.18228  -786.98364  894.4961  
161  590  -512.201  -853.1229  995.07214  
162  585  -651.5022  -1077.7769  1259.388  
163  531  -792.5514  -1316.4346  1536.5994  
164  511  -1041.4248  -1774.6526  2057.6582  
165  552  -1603.8735  -3013.224  3413.4924  
166  595  -4377.1323  -8278.333  9364.299  
167  576  5955.141  11476.025  12929.147  
168  523  1734.435  3423.3093  3837.618  
169  515  1085.5099  1993.6621  2270.0264  
170  562  739.02124  1370.1304  1556.7303  
171  597  528.9413  1091.0354  1212.4921  
172  567  433.82953  857.23975  960.7643  
173  516  312.55673  698.4894  765.23145  
174  521  325.36877  693.7596  766.2684  
175  573  272.35138  598.8219  657.8472  
176  595  221.84505  527.1532  571.9316  
177  555  187.34697  447.31094  484.95975  
178  510  186.29453  443.18524  480.74817  
179  528  163.50623  407.89984  439.4503  
180  582  149.52786  330.25085  362.52475  
181  592  141.91277  363.63126  390.34207  
182  545  132.03392  315.0863  341.63187  
183  508  123.18797  314.38623  337.65955  
184  538  114.58067  312.58762  332.92606  
185  590  115.294975  253.03372  278.06293  
186  586  88.88553  237.19852  253.3057  
187  534  71.93271  244.45749  254.82108  
188  510  76.14447  230.24997  242.51398  
189  549  74.94008  212.41364  225.24557  
190  595  43.173782  212.84851  217.18301  
191  577  75.39578  200.35217  214.06895  
192  523  64.253784  191.82428  202.29953  
193  513  73.53665  200.21417  213.29172  
194  562  75.90641  185.95004  200.84622  
195  597  63.876095  151.10815  164.05435  
196  568  46.525665  143.8648  151.20093  
197  517  39.370758  164.0047  168.66415  
198  519  33.03357  158.47797  161.88417  
199  571  46.463554  147.70102  154.83685  
200  596  15.732019  147.56387  148.40012  
201  557  23.542694  120.529816  122.807556  
202  510  21.434792  161.6644  163.07921  
203  527  39.269043  132.27524  137.98114  
204  581  48.789276  99.36307  110.69514  
205  593  50.78736  130.03421  139.60033  
206  545  35.378075  116.30759  121.56917  
207  509  40.48851  110.50339  117.68738  
208  538  20.725075  118.7883  120.5827  
209  589  9.852612  122.32538  122.72152  
210  587  25.74825  131.73975  134.23239  
211  534  20.813042  111.32562  113.25448  
212  510  -11.374218  116.131775  116.687454  
213  550  22.745586  110.60034  112.915  
214  596  -9.919041  94.9245  95.44133  
215  578  22.921043  78.278625  81.565414  
216  524  15.147873  97.51355  98.68308  
217  513  -21.762917  106.35016  108.55405  
218  560  21.807037  88.76221  91.40173  
219  596  19.416862  89.96701  92.03845  
220  569  10.959602  91.39844  92.053185  
221  517  21.707382  73.39075  76.53373  
222  519  2.0707245  86.18533  86.210205  
223  571  -3.3565445  83.2991  83.36671  
224  596  -8.424347  81.96979  82.40155  
225  558  19.806198  76.555725  79.07632  
226  510  3.9028625  77.343994  77.442406  
227  527  10.867035  96.134094  96.74635  
228  581  20.50785  95.053375  97.24051  
229  592  -22.35353  56.33319  60.60618  
230  546  21.903519  80.13342  83.07304  
231  508  -0.1031189  90.0137  90.01376  
232  539  6.7431183  58.524475  58.911663  
233  588  -3.8728485  76.439026  76.53707  
234  587  -10.993744  91.8833  92.53866  
235  534  -5.4116974  80.69205  80.873314  
236  509  9.546707  77.329346  77.91641  
237  548  -21.827637  52.54477  56.898144  
238  594  -10.4691925  71.73996  72.49983  
239  579  -13.707886  54.183777  55.890854  
240  524  6.9752045  63.12451  63.50872  
241  514  0.49778748  84.563324  84.56479  
242  561  14.189148  70.85257  72.259384  
243  597  17.572708  52.697784  55.550484  
244  568  -20.46962  53.202026  57.004044  
245  517  -19.663025  63.98294  66.93617  
246  519  -23.77649  54.460693  59.424644  
247  571  -4.3615417  40.401672  40.636414  
248  596  -6.640854  64.797  65.13641  
249  557  -12.534256  47.11975  48.75837  
250  511  -48.47284  140.14069  148.28697  
251  528  -33.705658  92.77838  98.71119  
252  581  0.17022705  57.894745  57.894997  
253  592  2.516983  53.321747  53.38112  
254  546  -8.01947  48.626556  49.283405  
255  509  -9.203033  22.925293  24.703539  
256  537  -13.579163  53.564087  55.258526  
257  588  -18.453888  45.30832  48.922283  
258  587  -4.8292236  55.455566  55.66544  
259  535  -10.392029  82.293915  82.94747  
260  510  -21.312958  38.98358  44.42929  
261  548  8.899261  53.899353  54.629086  
262  593  1.837677  50.211456  50.24507  
263  580  -14.460114  16.224854  21.733402  
264  526  0.861084  40.95349  40.962543  
265  511  -11.842621  28.521637  30.882544  
266  559  -2.866333  44.050293  44.14345  
267  596  -29.827728  60.909912  67.82117  
268  570  -2.840393  35.339386  35.45335  
269  517  -13.458923  40.878326  43.036964  
270  517  -38.64995  46.892303  60.767643  
271  569  15.214264  39.970215  42.767883  
272  597  -42.078003  60.0188  73.299484  
273  557  -20.233582  29.162537  35.494385  
274  513  0.058776855  25.41806  25.418129  
275  525  -28.495483  26.07306  38.623787  
276  579  -13.737427  33.559692  36.262512  
277  594  1.2832642  11.400024  11.472024  
278  548  -30.797974  23.795166  38.919468  
279  509  -24.739594  26.173492  36.015263  
280  536  -16.091187  46.884033  49.568527  
281  589  -37.663055  12.850891  39.795113  
282  587  6.784668  39.211823  39.794456  
283  537  -11.892426  21.491028  24.562046  
284  509  -18.540894  32.54593  37.456673  
285  546  -12.713043  28.230316  30.960817  
286  593  -10.173126  1.2876587  10.254295  
287  581  -19.07434  32.565186  37.74019  
288  526  -12.382202  20.255676  23.7405  
289  513  2.917328  31.294067  31.429754  
290  558  -29.031952  36.52237  46.65552  
291  596  -9.767517  26.667786  28.400267  
292  571  -14.829651  26.449554  30.323215  
293  519  -13.747955  28.21988  31.39057  
294  517  -9.715393  19.862335  22.11111  
295  569  -15.080444  29.29071  32.944885  
296  596  -1.8224792  10.495209  10.652269  
297  561  -21.702118  45.997864  50.86045  
298  513  -14.985168  39.345337  42.102386  
299  526  -34.6055  -3.723755  34.80527  
300  578  -39.461975  -0.29748535  39.463097  
301  593  -16.262726  24.602203  29.491434  
302  548  -3.6445312  46.507263  46.64985  
303  509  -9.562439  39.045532  40.199425  
304  535  -41.207184  19.649109  45.652157  
305  586  -30.42871  38.573334  49.130527  
306  589  -38.266235  58.96634  70.294624  
307  537  -16.759216  32.422485  36.49779  
308  510  -22.755432  42.589478  48.287403  
309  546  -8.782196  27.03598  28.426592  
310  592  -3.7668152  36.62561  36.8188  
311  581  -6.8570557  23.860199  24.82596  
312  528  -11.65152  26.271057  28.738935  
313  511  -3.8466187  18.624268  19.017355  
314  556  -68.042786  22.566956  71.68744  
315  596  -37.63556  19.981506  42.610985  
316  572  -11.899048  37.880615  39.70552  
317  519  -32.326416  33.516113  46.5653  
318  516  -5.858307  13.884857  15.070137  
319  568  -1.9090881  16.89682  17.004328  
320  596  -3.5031433  35.22534  35.399105  
321  560  -7.602844  -2.7915955  8.099151  
322  513  -5.951172  4.999695  7.7726054  
323  524  -38.60617  20.034515  43.495037  
324  577  -22.785095  10.826416  25.226412  
325  594  -19.760376  0.07626343  19.760525  
326  550  -18.252655  14.653473  23.406916  
327  510  -16.284302  32.996887  36.79637  
328  534  -28.666016  2.8113708  28.803547  
329  585  -27.116058  23.726318  36.030804  
330  590  -44.571686  20.017395  48.860325  
331  538  -24.473297  3.040924  24.661497  
332  508  -29.21814  9.6631775  30.774612  
333  544  -80.94525  9.349426  81.483406  
334  592  -14.542297  29.173584  32.597183  
335  582  -39.352295  0.17605591  39.352688  
336  527  -19.010895  20.345337  27.84505  
337  511  -20.510681  9.871033  22.762367  
338  556  -20.84848  8.65564  22.573862  
339  596  -27.415955  2.9878235  27.578281  
340  572  -43.62274  12.38591  45.347046  
341  519  -9.140839  19.82228  21.828371  
342  517  -19.80188  16.896866  26.031107  
343  568  -39.640717  -10.07225  40.900326  
344  597  -17.9805  16.16829  24.180817  
345  562  -30.489594  11.620026  32.628826  
346  513  -48.054718  -17.464508  51.129883  
347  524  -3.202423  8.284897  8.882288  
348  578  -34.605896  34.168655  48.631935  
349  595  -50.759583  6.064621  51.12059  
350  549  -16.09082  22.042007  27.290375  
351  509  -29.619232  22.865952  37.418587  
352  533  -29.829895  -6.4256744  30.514128  
353  585  -26.301575  -5.917572  26.959051  
354  589  -29.53009  13.776611  32.585598  
355  539  -37.512543  27.154099  46.309135  
356  508  0.65496826  4.391571  4.440144  
357  545  -42.56491  13.87616  44.769627  
358  592  -21.447449  25.012772  32.94893  
359  582  -33.249634  -18.033218  37.825058  
360  529  -57.189636  -11.045486  58.24652  
361  511  -30.51178  9.88092  32.071815  
362  556  -14.605408  26.276566  30.062864  
363  595  -27.018341  2.8133545  27.164421  
364  572  -19.908325  -8.115555  21.49892  
365  519  -11.262634  6.846863  13.180533  
366  517  -18.004395  -32.03772  36.750153  
367  567  -18.002197  7.822754  19.628412  
368  597  -41.04779  20.49025  45.87779  
369  561  -21.845886  16.050735  27.108465  
370  513  -15.576538  11.94902  19.631802  
371  524  -9.823975  7.107086  12.125228  
372  577  -17.394531  -0.04764557  17.394596  
373  596  -26.130981  28.60331  38.74245  
374  550  -25.807861  -0.9379959  25.824902  
375  510  -37.327637  10.992905  38.912678  
376  534  4.4558716  15.681374  16.302155  
377  586  -36.934845  11.612183  38.71725  
378  589  -24.531311  8.792786  26.059513  
379  539  -24.164185  0.016616821  24.164192  
380  508  -17.073425  -31.15728  35.528553  
381  544  -31.720581  1.2050552  31.743462  
382  592  1.4321289  -2.9898148  3.3151147  
383  583  -16.898315  -3.3347092  17.224209  
384  528  -45.111176  28.106812  53.150833  
385  511  -29.997253  13.633392  32.95003  
386  556  -46.206116  -4.01215  46.37998  
387  597  -17.38507  0.22224045  17.386492  
388  573  -18.667847  3.3934097  18.973764  
389  520  -21.690674  -21.913551  30.833246  
390  516  -5.222229  12.19965  13.270385  
391  566  -37.32373  2.3093987  37.39511  
392  597  -46.98761  -3.4532776  47.114334  
393  563  -35.567932  -15.891027  38.956417  
394  514  -29.162415  -15.710978  33.125237  
395  523  -22.393799  -0.618515  22.40234  
396  577  -29.769348  17.845524  34.708454  
397  595  -30.7453  -12.693458  33.26255  
398  551  -42.348755  -9.001282  43.294804  
399  510  -27.55841  -14.535866  31.15698  
400  532  -9.999451  -0.5016295  10.012025  
401  584  -27.264587  13.516853  30.431284  
402  591  -41.682983  8.001402  42.444004  
403  540  -31.657776  10.3442955  33.304943  
404  509  -29.929077  -18.749662  35.317127  
405  544  -21.691895  -1.394474  21.736671  
406  593  -28.841858  14.155748  32.12846  
407  584  -36.257812  14.717556  39.131004  
408  529  -46.54727  2.76305  46.629208  
409  511  -37.132812  -3.432682  37.291138  
410  554  -4.143982  -12.727493  13.385129  
411  596  -23.37323  19.217285  30.25908  
412  574  -18.01007  -4.0593033  18.461868  
413  521  -16.919373  -0.9387207  16.945393  
414  516  -46.067688  2.931614  46.160873  
415  565  -30.268372  -14.97937  33.772118  
416  596  -45.1008  -28.769638  53.495552  
417  563  -16.6557  1.5758591  16.730083  
418  514  1.2393799  2.1872406  2.5139778  
419  522  -31.732056  -3.05365  31.878647  
420  576  -17.665771  29.29383  34.2083  
421  595  -23.66156  -0.705925  23.672089  
422  553  -24.670227  -10.54055  26.82766  
423  510  -36.868896  -12.994415  39.09182  
424  531  5.319519  -17.733818  18.51447  
425  584  -36.68979  -12.087326  38.629578  
426  589  -24.81958  -0.14118195  24.819983  
427  540  -25.607178  -30.011719  39.451626  
428  509  -17.011108  -1.1483765  17.049826  
429  541  -10.312988  -8.131096  13.132876  
430  591  -15.508118  -13.514481  20.570436  
431  584  -21.59613  -17.518631  27.808187  
432  530  -41.51367  -21.667755  46.828163  
433  509  -18.539978  -8.101486  20.232767  
434  553  -18.497864  29.291702  34.64354  
435  595  -11.8220215  -8.6935425  14.674396  
436  575  -19.207764  7.7976074  20.730192  
437  522  -27.420074  -3.605545  27.65611  
438  515  -15.437439  -27.324615  31.383898  
439  563  -30.550323  -10.99881  32.469925  
440  597  -57.727203  9.619461  58.52319  
441  564  -34.238037  16.741684  38.112034  
442  515  -21.0289  -26.765198  34.038074  
