n v(n)    Re(T)       Im(T)        Mod(T) 
   
0  552  442793.0  0.0  442793.0  
1  526  -63.32422  -6.3353906  63.64035  
2  511  -60.544006  -10.770347  61.49453  
3  513  -52.096924  -5.8652115  52.426044  
4  532  -48.318787  -13.247435  50.101894  
5  560  -72.121765  -27.811256  77.29822  
6  585  -54.089783  22.127748  58.440926  
7  597  -73.10193  -4.1106834  73.217415  
8  592  -70.42328  -0.87183  70.42867  
9  571  -67.107025  -9.854332  67.8267  
10  542  -77.29529  -3.2973137  77.365585  
11  519  -64.19672  22.966331  68.18116  
12  510  -71.06546  -10.064602  71.77462  
13  519  -61.881958  3.1432953  61.96174  
14  543  -64.53024  14.734707  66.19112  
15  571  -55.0542  11.1509285  56.17213  
16  592  -54.90158  -1.8652878  54.933258  
17  598  -95.262665  14.79792  96.40516  
18  584  -74.555786  -13.110565  75.69975  
19  559  -75.93448  41.46376  86.51756  
20  531  -42.66269  9.673164  43.745575  
21  513  -68.49643  13.337822  69.782936  
22  511  -52.013153  2.2536087  52.061954  
23  527  -74.931  13.910767  76.21131  
24  554  -70.87668  22.22725  74.28024  
25  581  -70.55472  13.565842  71.84706  
26  596  -55.958893  32.11051  64.5173  
27  595  -79.73984  14.205444  80.995285  
28  577  -70.12039  62.314148  93.8079  
29  547  -64.97159  32.44139  72.6206  
30  523  -67.1835  31.289497  74.11246  
31  510  -82.737885  20.607155  85.26554  
32  516  -88.10138  3.0609894  88.15454  
33  537  -94.322174  47.4796  105.59823  
34  564  -106.01633  24.158829  108.73413  
35  589  -74.408325  54.317368  92.12478  
36  598  -70.486725  24.53862  74.63593  
37  589  -86.88098  59.913696  105.536514  
38  566  -108.05084  30.626648  112.3075  
39  537  -96.78323  36.367355  103.39042  
40  515  -89.64197  24.351242  92.89061  
41  510  -88.289825  49.866516  101.399025  
42  522  -114.08942  54.095383  126.26443  
43  548  -99.92404  40.57869  107.849174  
44  575  -114.81  47.77745  124.354416  
45  595  -101.09268  30.688965  105.6482  
46  596  -88.94043  64.23256  109.70972  
47  582  -128.32477  68.37729  145.40529  
48  553  -110.81213  77.36377  135.14615  
49  527  -113.97931  68.85896  133.1647  
50  512  -111.82266  70.69322  132.29453  
51  513  -97.56906  56.194534  112.59461  
52  531  -119.2637  31.184357  123.273254  
53  559  -121.50055  53.83644  132.89374  
54  585  -129.83768  60.631927  143.29707  
55  598  -131.64374  82.085846  155.13916  
56  592  -135.7554  88.50607  162.05818  
57  571  -128.2468  99.51283  162.32697  
58  541  -150.849  103.682236  183.04488  
59  518  -135.86746  119.25557  180.78123  
60  510  -147.17969  97.296295  176.43251  
61  519  -155.74057  112.67851  192.2279  
62  542  -171.93182  93.1505  195.5443  
63  571  -172.0886  100.86539  199.47008  
64  592  -196.04303  123.001434  231.43513  
65  598  -205.88385  137.68703  247.681  
66  586  -189.32822  121.539505  224.98227  
67  559  -217.42041  159.29651  269.5311  
68  531  -238.19894  160.7868  287.38672  
69  514  -254.37598  155.45062  298.11414  
70  510  -258.9535  185.0362  318.26926  
71  526  -293.548  202.13275  356.40997  
72  553  -326.83377  217.62552  392.65912  
73  580  -358.9238  245.59079  434.9036  
74  595  -390.8669  287.41266  485.16284  
75  595  -437.48166  318.68063  541.2463  
76  576  -502.12576  356.81668  615.99384  
77  548  -580.29346  415.3267  713.6083  
78  523  -689.5893  460.68933  829.3178  
79  511  -833.19257  574.028  1011.7895  
80  516  -1104.1937  818.9418  1374.7397  
81  536  -1525.5465  1126.0839  1896.1427  
82  565  -2762.7632  2027.9076  3427.1372  
83  589  -12282.283  9061.843  15263.403  
84  598  5040.495  -3720.692  6264.993  
85  589  2139.7725  -1547.7056  2640.8367  
86  566  1357.6646  -1017.8972  1696.87  
87  536  960.176  -746.2256  1216.0553  
88  514  767.3314  -594.23  970.5188  
89  509  633.7452  -511.2159  814.23254  
90  522  519.8003  -427.02057  672.71014  
91  547  470.8452  -330.6405  575.342  
92  575  439.80176  -315.22528  541.1031  
93  595  378.05447  -313.53  491.1479  
94  596  332.33466  -261.49072  422.87555  
95  581  290.5512  -253.7944  385.787  
96  554  286.97168  -230.41684  368.02808  
97  528  261.32944  -185.22925  320.31696  
98  510  236.54536  -189.7402  303.2409  
99  512  229.062  -164.08408  281.7676  
100  529  226.41037  -196.70795  299.92612  
101  558  232.84305  -163.73218  284.64734  
102  584  196.52621  -156.07425  250.96161  
103  598  200.7179  -144.59967  247.37973  
104  592  185.63693  -123.99008  223.23666  
105  573  166.93013  -132.21088  212.94455  
106  542  181.56833  -120.70892  218.03143  
107  519  154.69444  -127.56647  200.50829  
108  510  133.85207  -125.93146  183.78006  
109  519  130.28784  -103.529724  166.41312  
110  542  130.13377  -118.36948  175.91513  
111  570  140.1217  -122.71115  186.2582  
112  593  124.79355  -100.13672  160.00247  
113  598  132.37872  -82.43527  155.94775  
114  585  124.03305  -88.14679  152.16457  
115  561  112.25235  -103.67688  152.80537  
116  532  107.8096  -112.92334  156.12364  
117  512  111.565125  -94.670685  146.31923  
118  510  93.265366  -78.1272  121.66465  
119  526  122.62898  -95.05429  155.15536  
120  553  86.08331  -93.3822  127.00619  
121  580  96.382355  -81.61063  126.29273  
122  596  109.793106  -56.252106  123.36461  
123  595  112.924774  -79.88864  138.32642  
124  575  62.329758  -36.97592  72.47218  
125  548  78.443695  -88.60803  118.341866  
126  523  87.4794  -91.10806  126.30647  
127  510  91.52074  -91.97717  129.75302  
128  515  71.05661  -69.87259  99.65551  
129  537  76.0141  -63.86966  99.28483  
130  564  100.827576  -59.276398  116.96107  
131  588  87.188705  -64.258514  108.30987  
132  597  94.16199  -76.53909  121.34543  
133  589  96.17731  -99.4025  138.3146  
134  566  68.76422  -59.540985  90.95959  
135  537  88.9126  -52.306976  103.1575  
136  515  83.40906  -69.92038  108.839005  
137  510  75.887924  -38.228333  84.97283  
138  522  52.1438  -34.751312  62.662823  
139  547  68.35388  -26.906616  73.45896  
140  574  74.63066  -51.373566  90.60342  
141  593  75.89911  -45.661682  88.57575  
142  597  48.000763  -65.09561  80.879616  
143  581  48.72818  -57.18698  75.13179  
144  553  88.9933  -39.814087  97.49343  
145  528  76.9467  -38.221313  85.91661  
146  511  67.47162  -57.782806  88.83283  
147  513  64.86348  -41.17456  76.828476  
148  531  49.23178  -47.939056  68.71624  
149  557  71.411606  -44.831757  84.31787  
150  584  75.3273  -56.37448  94.08658  
151  596  66.72481  -48.625244  82.56279  
152  592  36.493805  -30.690094  47.683117  
153  572  46.552124  -50.165314  68.43726  
154  543  51.238968  -65.00812  82.77371  
155  520  77.52319  -43.744843  89.0138  
156  510  52.234314  -42.488525  67.33274  
157  519  47.815857  -45.38022  65.92208  
158  541  63.9057  -54.56131  84.029015  
159  570  79.38399  -43.274017  90.41271  
160  592  67.89612  -46.3739  82.22179  
161  598  52.22815  -35.64685  63.233517  
162  586  55.627777  -51.986267  76.138176  
163  559  50.66266  -40.108673  64.61742  
164  532  56.94261  -19.499207  60.1887  
165  514  55.354736  -62.75644  83.681046  
166  512  4.183182  -66.327545  66.45933  
167  525  91.67934  1.4825134  91.69132  
168  551  50.24759  0.43356323  50.249462  
169  579  44.113503  -26.266663  51.341393  
170  595  52.879753  -52.83252  74.74987  
171  596  45.63801  -24.644135  51.866764  
172  576  61.83995  -22.254547  65.72248  
173  548  68.22226  -28.41446  73.90303  
174  523  50.611534  -30.552155  59.1182  
175  510  62.29503  -51.383026  80.752  
176  515  42.733925  -42.562897  60.314083  
177  535  23.814148  -30.909576  39.019424  
178  563  64.63301  -34.93033  73.46805  
179  586  45.57737  -36.977753  58.691147  
180  598  56.509125  -34.616577  66.269066  
181  589  35.570755  -40.78717  54.119053  
182  567  49.280197  -36.173706  61.13162  
183  539  51.30832  -21.143158  55.493935  
184  516  48.127182  -7.8904114  48.769707  
185  509  44.365803  -33.18524  55.40383  
186  521  41.16681  -27.986969  49.779278  
187  546  25.640217  -37.390076  45.336945  
188  575  50.83933  -30.70462  59.392014  
189  594  47.552013  -44.768585  65.31019  
190  597  43.808674  -40.8461  59.89661  
191  582  51.38883  -21.136475  55.565838  
192  555  62.133194  -29.46991  68.76779  
193  527  56.287155  -18.389038  59.214867  
194  512  21.588428  -31.949585  38.559513  
195  513  34.62451  -36.48517  50.299347  
196  530  62.83558  -18.825623  65.59508  
197  558  44.755245  -24.493286  51.019146  
198  583  60.01216  -44.71698  74.84028  
199  598  57.78803  -23.280762  62.301285  
200  593  38.86733  -16.425537  42.195587  
201  572  61.857788  -18.638794  64.60488  
202  544  28.07333  -19.994385  34.46574  
203  520  51.268883  3.1272278  51.36417  
204  510  35.504906  -34.016968  49.170647  
205  518  26.526594  -29.807434  39.901672  
206  540  41.94988  -20.014893  46.479977  
207  569  51.234844  -45.72711  68.67298  
208  591  43.151497  -2.9873047  43.254776  
209  599  49.346443  -50.369263  70.51336  
210  586  49.036312  -22.812744  54.083096  
211  561  19.602932  -25.648346  32.28177  
212  533  36.759144  -19.493439  41.608036  
213  513  35.398342  -21.845612  41.596554  
214  510  49.87278  -38.706696  63.130836  
215  526  56.559566  -26.151672  62.312878  
216  552  30.72882  -20.032684  36.681995  
217  580  5.358879  -23.598053  24.198877  
218  596  19.891777  -14.129242  24.399145  
219  595  50.264954  -22.667297  55.13957  
220  578  37.994225  1.5647278  38.026432  
221  549  52.341515  9.004547  53.110413  
222  523  51.637108  1.4561157  51.657635  
223  511  30.826538  -34.13092  45.99125  
224  515  33.13685  -21.16391  39.31872  
225  535  44.802887  -17.319977  48.034157  
226  563  23.355583  -9.379028  25.168423  
227  587  27.034897  -8.391602  28.307323  
228  598  19.666115  -22.804138  30.112867  
229  590  39.853134  -13.812897  42.179005  
230  567  36.977196  -20.219849  42.14446  
231  538  41.783295  -27.972687  50.282352  
232  516  35.797516  -7.345978  36.543476  
233  510  27.5  -13.921722  30.823114  
234  521  35.378204  -30.474548  46.693848  
235  546  34.018402  -18.472412  38.710228  
236  573  39.527634  -26.274384  47.46343  
237  594  33.05687  -32.121338  46.0927  
238  596  22.866913  -7.490204  24.062395  
239  582  16.235031  -27.489899  31.92602  
240  555  50.71254  -8.580078  51.43325  
241  529  34.960434  12.212097  37.031975  
242  512  42.788315  -21.966919  48.097664  
243  513  34.119614  -20.4458  39.77661  
244  529  33.938858  -42.095184  54.072643  
245  557  29.91977  -15.551422  33.720013  
246  583  12.889969  -19.479187  23.357868  
247  597  9.071518  -14.222443  16.869211  
248  594  37.11963  -15.985596  40.41542  
249  573  26.38295  -13.8063965  29.777117  
250  544  13.518311  8.095459  15.756941  
251  520  39.009644  -27.941406  47.984108  
252  510  41.949966  -24.16156  48.41054  
253  517  38.04538  -5.1749268  38.395714  
254  540  56.104935  -10.126434  57.011475  
255  568  18.192657  -15.87793  24.14708  
256  591  33.756775  -11.8038025  35.761005  
257  597  53.45349  -18.63385  56.60827  
258  586  16.429932  -26.616272  31.278883  
259  562  39.85573  -19.21106  44.24414  
260  534  35.403076  -8.833496  36.48847  
261  514  17.292358  -13.24765  21.783615  
262  511  38.451996  1.1922302  38.470474  
263  524  14.297974  -19.722504  24.359991  
264  551  25.148468  5.8926086  25.829601  
265  577  52.67903  3.9183655  52.82456  
266  595  20.036087  -5.6411133  20.815065  
267  596  41.70233  -11.889923  43.36421  
268  579  38.406494  -27.81659  47.42174  
269  551  15.546265  -5.5470886  16.506258  
270  524  34.176727  -27.28363  43.731514  
271  512  35.585144  -13.337189  38.00241  
272  514  36.272858  -14.312561  38.99448  
273  533  24.074646  -23.8219  33.868446  
274  562  10.132172  -7.9867554  12.901518  
275  586  37.665833  -12.626068  39.725716  
276  597  43.240448  -24.428925  49.66396  
277  591  47.817627  -16.587067  50.61281  
278  569  21.200317  -6.842102  22.27707  
279  540  7.585602  1.646637  7.7622657  
280  517  48.24283  -25.09024  54.3773  
281  510  44.010742  -25.59021  50.909767  
282  521  20.543152  -9.995483  22.845804  
283  545  24.095917  -11.275177  26.603437  
284  573  15.730713  -13.231873  20.555723  
285  592  37.198914  -34.58023  50.789284  
286  596  37.822357  -1.5708008  37.85496  
287  584  46.90338  -10.129303  47.984684  
288  557  48.89798  -21.116852  53.262875  
289  529  45.744293  7.6373596  46.37747  
290  512  47.400238  -6.9155884  47.902065  
291  511  42.851715  -8.748596  43.735653  
292  528  42.286407  -2.3608704  42.35226  
293  556  48.960876  -24.627167  54.805702  
294  581  45.52481  -22.765503  50.89967  
295  597  17.808655  -17.336151  24.853376  
296  594  31.345825  -11.948273  33.54582  
297  574  28.016113  13.685638  31.18011  
298  545  46.145782  -16.004425  48.842346  
299  521  33.04065  -19.798706  38.518482  
300  509  17.179718  -18.867249  25.51697  
301  516  30.88852  -20.511597  37.078648  
302  539  27.105164  -6.1999207  27.805195  
303  567  19.630676  10.456329  22.241814  
304  588  39.5466  -29.737732  49.479958  
305  597  33.82837  10.112427  35.307503  
306  588  29.76242  -22.650482  37.40115  
307  563  26.584076  -24.218414  35.96171  
308  534  20.868683  18.0018  27.56024  
309  515  27.173218  -2.6662598  27.303713  
310  509  24.161987  -21.886963  32.60124  
311  525  20.318146  -5.5355835  21.058722  
312  549  36.25824  3.559143  36.432503  
313  576  25.134277  2.238678  25.233778  
314  596  31.161438  -21.716705  37.98224  
315  596  31.704163  -5.549835  32.18625  
316  579  42.083374  -14.180817  44.4084  
317  551  39.568665  4.23584  39.794743  
318  525  23.2005  22.775635  32.511425  
319  510  27.068878  -6.736786  27.894596  
320  514  32.658752  -3.8453674  32.884357  
321  533  50.108948  -17.217072  52.984283  
322  561  30.974945  -18.638794  36.150406  
323  585  16.724457  0.9413147  16.750927  
324  597  27.429565  -13.707367  30.66387  
325  590  30.904358  -13.32074  33.652958  
326  570  33.91339  -12.914581  36.289177  
327  540  40.456543  -13.561798  42.669125  
328  517  36.52487  -6.5874634  37.114162  
329  510  16.880981  3.4442139  17.22876  
330  520  19.095795  -13.141632  23.180851  
331  544  28.128998  -2.9391174  28.282131  
332  572  30.168915  -3.3247986  30.351568  
333  592  15.628967  -2.4162598  15.814643  
334  597  48.335876  3.6021729  48.469913  
335  584  9.810028  16.934128  19.57042  
336  557  43.309296  15.851868  46.11916  
337  530  42.28952  -18.21817  46.046772  
338  513  30.182343  -3.8675842  30.42913  
339  512  27.305237  -2.5760498  27.426483  
340  528  22.591675  13.944489  26.548681  
341  555  38.550568  -6.3214264  39.065414  
342  581  45.136658  -11.243652  46.51599  
343  596  19.710114  -25.864166  32.518356  
344  593  18.501556  3.1734924  18.771751  
345  575  21.536438  -5.0283813  22.115667  
346  546  35.212677  -13.83725  37.833874  
347  521  26.339355  -1.101181  26.362364  
348  509  29.990753  -18.059052  35.00821  
349  516  24.325073  11.401657  26.864605  
350  538  21.90155  -9.28009  23.786509  
351  566  36.470947  2.1965942  36.537037  
352  589  21.195953  -29.481339  36.310024  
353  597  39.43857  -23.93454  46.1331  
354  588  27.423279  2.241394  27.514725  
355  564  42.315643  -7.2043  42.924534  
356  536  28.063416  -7.3677673  29.014467  
357  515  42.893646  -0.9926605  42.905132  
358  510  33.305054  1.7201691  33.349445  
359  524  9.221954  5.796036  10.892129  
360  550  22.022644  -8.43013  23.581009  
361  577  41.119568  -18.121338  44.935528  
362  596  37.70584  16.264801  41.06427  
363  596  24.998016  2.2604218  25.100006  
364  581  28.025696  19.514038  34.150215  
365  553  19.590515  1.0059967  19.616327  
366  527  19.099304  -15.342178  24.498281  
367  511  16.672485  -10.406296  19.653568  
368  514  34.596466  15.420044  37.877342  
369  533  23.355438  2.7229156  23.51363  
370  560  38.659485  24.972824  46.023884  
371  585  25.247192  6.737488  26.130718  
372  597  46.923645  10.743996  48.137943  
373  591  20.1969  -21.75  29.681261  
374  570  45.40616  2.2013855  45.45949  
375  540  13.1276245  -9.568123  16.244492  
376  518  27.859528  -28.75026  40.03412  
377  510  -0.6890259  20.608376  20.61989  
378  520  38.434875  -7.86718  39.231777  
379  543  14.387451  -26.876228  30.484922  
380  571  46.529358  -26.322426  53.458874  
381  592  42.360596  -6.600456  42.87174  
382  596  31.291656  2.132904  31.364264  
383  584  41.603058  -30.089958  51.34413  
384  558  14.076782  12.356903  18.730959  
385  531  43.094635  -3.9976196  43.279655  
386  512  17.304504  20.447083  26.786734  
387  512  24.408813  6.9473457  25.378254  
388  527  33.48343  -1.3796577  33.51184  
389  554  29.470703  -4.299038  29.782614  
390  581  23.066772  16.489513  28.354542  
391  597  39.989685  -17.43827  43.62646  
392  594  20.51062  -2.5014648  20.662596  
393  575  20.234497  -10.634249  22.858742  
394  546  38.248474  5.4811745  38.639217  
395  522  30.916504  -4.5150204  31.24445  
396  510  48.495605  -10.939079  49.714054  
397  516  26.509094  -12.932568  29.495481  
398  538  41.793457  -12.228254  43.545643  
399  565  7.8690186  -8.772158  11.784406  
400  589  1.0004272  -0.44440365  1.0946914  
401  597  8.146973  7.866477  11.324956  
402  589  42.13971  11.397157  43.653755  
403  565  25.570923  10.730465  27.73112  
404  537  48.327698  10.267019  49.406254  
405  515  31.552551  2.7698765  31.673897  
406  511  38.6568  -6.8958817  39.26705  
407  523  19.516602  9.601082  21.750368  
408  549  20.9953  2.1256905  21.102634  
409  576  40.155487  16.557934  43.435333  
410  595  24.089294  -16.845802  29.395157  
411  596  27.752472  1.7403984  27.80699  
412  580  34.171112  0.8275871  34.181133  
413  553  24.82022  -7.5082817  25.931017  
414  526  17.539795  -21.212841  27.525063  
415  510  42.64322  2.9854965  42.7476  
416  513  14.067322  -12.90023  19.086788  
417  533  41.805664  28.527573  50.611618  
418  560  31.089172  -2.8309097  31.217794  
419  585  42.277405  4.8505554  42.55475  
420  596  45.884735  24.727715  52.12359  
421  591  14.885468  26.364204  30.276203  
422  570  38.178833  6.306839  38.696247  
423  541  -0.6769104  -21.818413  21.82891  
424  519  28.574036  26.831604  39.19707  
425  509  13.78891  8.571739  16.236032  
426  520  46.367615  -3.0927277  46.470642  
427  542  20.547699  20.419266  28.96816  
428  571  47.29785  -11.9735565  48.789883  
429  591  24.754913  -7.724472  25.932089  
430  599  38.748016  -26.358643  46.86349  
431  584  23.603973  -4.0172806  23.943394  
432  559  34.035187  -16.40039  37.780506  
433  531  16.121674  10.255768  19.107306  
434  513  18.569397  12.718445  22.507362  
435  511  19.007416  -2.7692566  19.208088  
436  527  28.724579  -19.69815  34.829853  
437  554  24.618774  -2.8002167  24.777515  
438  580  36.958435  -17.074371  40.711914  
439  595  41.080353  17.153885  44.517986  
440  593  21.478638  7.298691  22.684858  
441  575  8.162537  -6.998047  10.751729  
442  547  33.60083  -3.1823883  33.751198  
443  522  42.94638  -0.3836975  42.948093  
444  510  28.325073  7.570999  29.319443  
445  516  42.535004  7.029648  43.111977  
446  537  28.22293  -3.0657196  28.388948  
447  565  38.504883  23.191727  44.949776  
