n v(n)    Re(T)       Im(T)        Mod(T) 
   
0  592  442647.0  0.0  442647.0  
1  518  16.979004  16.669384  23.79401  
2  581  -15.17157  -8.279893  17.2839  
3  532  22.775635  10.581705  25.113781  
4  566  17.556946  7.7270966  19.182137  
5  549  24.9552  10.240868  26.974754  
6  549  14.874451  -6.300461  16.153795  
7  567  34.728455  5.8104057  35.21117  
8  531  18.207642  31.496738  36.380802  
9  582  30.886658  -42.49352  52.5327  
10  520  16.317444  -18.51493  24.679174  
11  592  69.480835  -0.39134216  69.48194  
12  512  17.090088  7.7167664  18.751522  
13  597  -11.987915  -34.302658  36.337067  
14  510  -17.551514  -3.3938026  17.87662  
15  596  11.049744  -5.807106  12.48276  
16  515  17.62976  5.6353683  18.508535  
17  586  19.180237  10.523621  21.87757  
18  527  11.528748  -20.720184  23.71156  
19  575  6.2664795  0.7959671  6.316829  
20  540  8.799438  7.888489  11.817715  
21  558  28.62439  -9.263573  30.086035  
22  558  26.368347  -9.298531  27.959835  
23  539  17.094543  13.844582  21.997633  
24  574  -16.341187  -25.652641  30.41533  
25  524  27.7995  5.3232117  28.304573  
26  588  58.612488  8.265411  59.192406  
27  514  18.401245  -2.6994247  18.598192  
28  595  29.92389  -4.723419  30.294386  
29  509  -1.2695923  14.645294  14.700221  
30  599  19.19873  16.448341  25.281202  
31  512  17.12915  -4.791641  17.786726  
32  592  16.850525  0.3723755  16.85464  
33  521  22.487213  4.651413  22.96324  
34  581  24.986542  -4.5514374  25.397694  
35  534  -1.590271  -1.5438538  2.216404  
36  562  23.701752  24.25592  33.91346  
37  552  34.735016  -17.756546  39.010464  
38  545  8.317444  13.897369  16.196196  
39  566  5.6973877  5.923538  8.218792  
40  532  -8.976379  11.528168  14.61075  
41  581  -5.259033  2.3411865  5.7566123  
42  518  -1.0245361  23.634476  23.656672  
43  593  28.444763  21.497452  35.654522  
44  509  12.750641  27.251724  30.08713  
45  597  11.560638  25.036789  27.57697  
46  509  35.67041  -3.00589  35.796837  
47  595  22.85431  12.518951  26.058464  
48  515  42.71991  -2.308899  42.78226  
49  587  34.74106  20.331848  40.25326  
50  526  5.4692383  4.396469  7.0172296  
51  572  12.922607  -0.5350952  12.9336815  
52  543  33.776825  -3.9272614  34.00437  
53  554  39.886627  19.757568  44.511845  
54  561  9.207397  -18.221405  20.415577  
55  536  8.549561  11.889557  14.644335  
56  577  5.3997498  -4.2488556  6.8709583  
57  522  40.138306  -17.258408  43.691376  
58  588  0.92108154  -0.28468323  0.9640725  
59  513  10.345001  -18.278229  21.002684  
60  595  18.831238  4.6442566  19.39548  
61  509  26.263824  5.385147  26.810226  
62  597  1.8872986  22.426819  22.50609  
63  511  7.024719  -3.1018066  7.6790547  
64  590  19.46695  -11.112976  22.415628  
65  523  39.026245  5.6411743  39.43185  
66  577  2.44104  9.42804  9.738922  
67  535  20.867615  19.891968  28.829632  
68  564  11.683899  34.049225  35.9981  
69  552  16.02127  3.600525  16.420868  
70  547  14.79245  13.390045  19.95269  
71  570  12.073456  14.735992  19.050402  
72  528  19.50647  30.758728  36.422543  
73  585  13.338043  8.833679  15.99804  
74  516  8.878204  15.669312  18.009716  
75  594  46.25528  -21.380646  50.957657  
76  510  13.75827  10.55069  17.338024  
77  597  26.833801  -8.95697  28.289225  
78  511  37.078705  16.699402  40.665714  
79  594  23.277222  19.959747  30.663017  
80  517  23.028778  21.712738  31.650713  
81  584  6.777527  16.457977  17.798874  
82  529  32.166107  -1.3648987  32.195053  
83  568  26.075623  -5.1136475  26.572308  
84  547  1.1122742  -6.852783  6.942463  
85  551  6.6142883  -1.3052063  6.7418375  
86  565  27.86795  5.860138  28.477427  
87  537  -1.6466064  7.7539673  7.926873  
88  580  10.709717  -9.507538  14.32101  
89  521  -6.079712  -9.451813  11.238312  
90  591  16.395813  14.9123535  22.163055  
91  512  33.04541  23.60022  40.607506  
92  597  75.49136  22.562805  78.79102  
93  509  17.532318  -18.026672  25.146433  
94  595  12.526306  13.371674  18.32239  
95  515  20.19403  4.9240723  20.785702  
96  590  1.1087952  3.928894  4.0823565  
97  522  21.05957  26.013275  33.46933  
98  576  38.138916  15.197357  41.055286  
99  538  14.735107  28.220093  31.835468  
100  560  16.602325  12.642242  20.867762  
101  555  7.5249634  -12.344543  14.457276  
102  543  27.688354  37.4841  46.601532  
103  572  36.82184  8.439484  37.776615  
104  527  17.848999  -8.148132  19.620876  
105  586  10.438995  -16.877747  19.845175  
106  516  6.416504  -1.5455322  6.6000147  
107  594  10.123352  20.683014  23.027578  
108  510  25.13504  57.17874  62.459415  
109  597  -1.5101929  16.501282  16.570244  
110  511  17.702026  -0.042388916  17.702076  
111  592  28.47165  -10.027344  30.185799  
112  518  16.118164  32.181274  35.992077  
113  582  14.481964  28.986145  32.402527  
114  531  31.068085  20.251678  37.0858  
115  569  25.674835  15.063019  29.767292  
116  544  19.909363  11.734772  23.110334  
117  553  -0.27319336  35.28824  35.289295  
118  563  32.582825  29.58377  44.009544  
119  534  9.190674  -3.5266418  9.844069  
120  579  29.63211  22.164642  37.0045  
121  522  19.089478  10.045715  21.571383  
122  590  7.5115356  15.567841  17.285278  
123  512  3.7417603  5.519623  6.668359  
124  597  13.034363  0.80270386  13.059056  
125  509  0.8902893  28.773834  28.787603  
126  597  36.444946  10.0607605  37.80811  
127  512  24.578705  -2.0149841  24.661161  
128  590  15.919739  -5.127228  16.725027  
129  523  8.065674  19.294403  20.912415  
130  577  15.587769  13.446228  20.585907  
131  538  42.48044  4.9091797  42.763157  
132  560  21.720093  1.4489136  21.768366  
133  556  17.34314  28.84967  33.66137  
134  542  8.461121  5.558563  10.123645  
135  569  38.83496  19.43692  43.4275  
136  529  12.80014  24.316528  27.47976  
137  584  15.538605  -11.641693  19.415903  
138  517  15.541397  16.719513  22.827114  
139  594  18.700043  -1.1539001  18.73561  
140  513  45.63553  28.426453  53.764904  
141  597  36.527573  -0.55722046  36.531822  
142  509  9.985931  36.411346  37.75586  
143  593  -22.352966  10.029633  24.499971  
144  516  28.346252  26.524445  38.82082  
145  585  13.839111  6.6882324  15.370539  
146  530  19.892807  21.207977  29.077518  
147  570  19.026642  5.9496765  19.935188  
148  547  11.47287  47.455536  48.822685  
149  553  11.8329315  17.077576  20.776474  
150  564  27.100052  15.232513  31.087656  
151  534  43.661026  2.6340332  43.740406  
152  580  -1.1293793  -0.565094  1.2628653  
153  520  23.814255  42.56848  48.776985  
154  594  11.140472  18.464111  21.564636  
155  513  21.807938  -1.3123169  21.847387  
156  596  2.478241  -1.0374756  2.6866398  
157  509  20.968033  7.664215  22.324842  
158  596  64.27342  29.51416  70.72594  
159  513  13.701233  11.408966  17.829422  
160  588  21.30014  29.363403  36.275414  
161  524  45.403046  11.882874  46.93228  
162  575  27.210281  16.54541  31.845722  
163  537  3.9555511  6.6082764  7.7016687  
164  561  -5.797699  18.49881  19.386059  
165  555  32.91916  11.807129  34.97255  
166  543  51.724884  35.895355  62.95983  
167  571  12.934021  -0.64593506  12.95014  
168  526  7.350342  7.906372  10.795288  
169  586  30.300735  22.534363  37.761517  
170  515  26.14627  27.401184  37.874165  
171  595  42.87829  22.212494  48.290188  
172  509  0.9128113  6.11261  6.1803904  
173  597  33.4302  31.600433  46.0018  
174  510  24.128235  23.039978  33.36184  
175  593  34.37417  91.12567  97.39338  
176  519  -6.372299  -7.881592  10.135368  
177  582  -8.347427  5.8048706  10.167402  
178  533  20.927849  6.7836304  21.99983  
179  565  10.283981  24.227844  26.32012  
180  549  4.512085  17.115417  17.700182  
181  547  -21.32505  48.05847  52.57732  
182  568  35.94023  22.202515  42.24514  
183  535  14.376091  11.664368  18.512955  
184  581  34.68582  9.473633  35.956306  
185  520  1.4634514  13.867371  13.944378  
186  592  38.29687  -1.4003906  38.322468  
187  511  6.2879944  12.727295  14.195877  
188  598  34.700665  17.515564  38.870697  
189  510  -0.2646103  7.0562744  7.061234  
190  594  10.830097  9.350708  14.308275  
191  515  19.258816  53.561096  56.9183  
192  588  8.401638  13.23114  15.673244  
193  526  27.836506  29.744019  40.737915  
194  574  25.333542  10.663513  27.48634  
195  541  -4.2515354  21.957703  22.365515  
196  557  -3.0676003  11.945984  12.33356  
197  560  7.8202963  28.134094  29.20076  
198  539  20.649033  24.6391  32.147594  
199  576  12.405256  21.598267  24.907337  
200  523  -4.2036796  22.543213  22.931799  
201  589  1.5889063  16.06128  16.13968  
202  515  20.641014  17.263  26.908411  
203  596  -9.990224  44.4433  45.552296  
204  509  12.002193  30.382812  32.667538  
205  596  9.69141  16.1745  18.855711  
206  511  6.0651474  31.146729  31.731762  
207  591  15.82691  49.357666  51.8331  
208  522  -69.57597  33.71527  77.31452  
209  579  58.22651  -0.73516846  58.23115  
210  535  21.016262  32.986755  39.112774  
211  566  39.971344  41.033203  57.283787  
212  550  31.711872  8.970703  32.95628  
213  548  9.093742  13.672852  16.42081  
214  568  7.8132515  6.8094482  10.364144  
215  531  16.618729  23.53772  28.813301  
216  583  12.027924  49.464844  50.906204  
217  518  16.764397  16.253418  23.349916  
218  594  49.0505  -1.6430664  49.07801  
219  510  42.446518  10.267517  43.670685  
220  597  35.118088  17.906677  39.419907  
221  509  -4.996521  26.717712  27.1809  
222  595  0.58553314  18.319275  18.32863  
223  516  30.707039  11.432373  32.766163  
224  586  17.166039  0.16473389  17.166828  
225  527  52.097176  21.514038  56.364613  
226  571  -9.053986  35.54669  36.68163  
227  544  -3.3275375  23.594086  23.827578  
228  554  45.27398  22.054565  50.360073  
229  561  11.078712  13.727417  17.64029  
230  536  11.817276  22.189972  25.140463  
231  575  21.482025  33.124237  39.48028  
232  524  6.1700134  58.084045  58.41083  
233  588  24.846863  26.4068  36.258595  
234  514  23.662857  43.572388  49.5831  
235  596  20.267029  24.249817  31.603895  
236  508  17.773544  41.368652  45.02515  
237  597  15.587799  18.342773  24.071495  
238  513  31.327042  43.368988  53.500027  
239  590  38.97525  23.72882  45.630333  
240  521  9.186844  34.635315  35.83299  
241  579  17.561935  63.470276  65.855125  
242  535  -11.502991  9.512024  14.926399  
243  564  36.8412  40.83313  54.996532  
244  552  6.5479126  36.00348  36.594067  
245  546  4.895111  39.99771  40.296143  
246  570  25.068039  28.759125  38.150936  
247  528  13.211166  18.335022  22.598848  
248  584  -5.242569  25.3219  25.85891  
249  515  10.070938  30.614105  32.22805  
250  594  16.785278  29.453583  33.900726  
251  510  18.357605  34.641052  39.204643  
252  596  1.5304413  40.136597  40.165764  
253  510  17.416168  33.37384  37.644867  
254  594  20.955399  49.06012  53.34814  
255  516  -24.414383  37.168182  44.469494  
256  585  -0.6131134  57.271454  57.27474  
257  528  2.6275024  60.04962  60.10708  
258  569  -3.1800995  76.45285  76.51896  
259  547  76.91429  -56.957947  95.70797  
260  552  55.21173  16.607056  57.655262  
261  563  24.382126  17.039825  29.746323  
262  535  39.59836  33.50894  51.873684  
263  580  27.328125  37.241364  46.192486  
264  521  28.089478  18.992065  33.907482  
265  592  24.313965  32.558044  40.6349  
266  511  27.487457  25.981873  37.82351  
267  597  14.593079  21.461731  25.953108  
268  510  -2.9511719  35.09027  35.214153  
269  596  35.725952  25.422272  43.847866  
270  514  14.239014  12.750061  19.113178  
271  589  7.27536  37.517334  38.216244  
272  524  24.365631  50.598785  56.15978  
273  576  4.240753  30.168732  30.46533  
274  539  5.4375305  34.11435  34.54498  
275  557  14.357574  29.587341  32.886936  
276  558  10.791992  36.553802  38.113613  
277  540  -8.403229  38.693817  39.59578  
278  575  -6.9770203  20.085907  21.263172  
279  527  20.804749  24.843231  32.404068  
280  587  16.10614  44.447876  47.276012  
281  516  29.458832  23.3266  37.575962  
282  595  -7.135376  24.198975  25.22903  
283  510  32.028442  46.37262  56.35815  
284  597  33.528015  61.488007  70.03501  
285  512  50.509155  34.9993  61.450188  
286  592  -0.5944824  28.334442  28.340677  
287  520  7.157776  24.409729  25.437544  
288  582  -9.893646  5.143738  11.150887  
289  532  -23.717255  27.78836  36.53356  
290  566  -3.7282715  25.400085  25.672249  
291  549  -20.702698  -45.33383  49.837315  
292  548  71.618225  158.5169  173.94476  
293  566  30.99878  95.09515  100.02006  
294  531  25.425934  61.55658  66.60098  
295  583  4.3632507  66.4689  66.61196  
296  517  34.15387  71.13132  78.90596  
297  593  46.78647  60.669952  76.61473  
298  511  11.6736145  42.112488  43.700516  
299  597  33.043243  74.754395  81.73173  
300  509  6.886261  64.45407  64.820885  
301  594  13.222382  22.751862  26.314987  
302  516  27.723999  37.56604  46.688625  
303  586  18.452301  78.14325  80.29231  
304  527  -10.953766  56.965485  58.009064  
305  572  11.337433  63.423126  64.42849  
306  544  7.625885  78.784485  79.152695  
307  554  43.658997  22.655762  49.187313  
308  558  17.245544  52.517456  55.27651  
309  540  1.4194031  37.38257  37.409504  
310  576  20.417023  89.38403  91.6862  
311  524  -5.0599976  53.128967  53.36938  
312  590  -5.4126587  67.034515  67.252686  
313  514  23.958984  59.661896  64.292885  
314  596  0.5725403  53.60663  53.609688  
315  509  5.785614  85.80716  86.00198  
316  595  0.6732483  73.16614  73.169235  
317  512  1.8416443  77.56781  77.58967  
318  592  7.3905334  84.35062  84.67377  
319  522  19.287872  76.21863  78.621254  
320  578  29.715424  52.13678  60.010418  
321  535  19.01355  72.90628  75.34481  
322  562  20.793121  94.13913  96.40814  
323  553  14.2187195  82.931854  84.14193  
324  543  -9.243469  99.460144  99.88875  
325  571  31.536469  90.572876  95.90618  
326  527  11.405304  56.65323  57.78987  
327  584  9.245758  91.29816  91.76512  
328  517  2.55719  68.29108  68.338936  
329  594  14.689911  56.517212  58.395107  
330  510  13.018646  99.31366  100.16331  
331  597  7.0733643  86.823364  87.111015  
332  510  -10.723175  60.478638  61.421917  
333  594  5.450592  100.3689  100.516785  
334  517  -15.329315  103.53522  104.66389  
335  584  7.0816956  116.7883  117.00281  
336  527  -25.814789  130.94061  133.46103  
337  572  19.625488  110.34985  112.08144  
338  543  11.888947  85.883896  86.70289  
339  554  -31.512024  101.74687  106.514946  
340  561  -20.237732  113.133606  114.92945  
341  536  -31.454987  110.17601  114.578224  
342  578  248.22372  107.62799  270.55276  
343  521  -2.990326  130.45726  130.49153  
344  591  8.798737  113.34407  113.685074  
345  513  -18.144287  124.173904  125.49252  
346  596  -12.292023  125.48222  126.08284  
347  509  16.539032  133.6437  134.66321  
348  597  -25.289734  136.73473  139.05379  
349  512  -20.261414  132.77174  134.30882  
350  589  -18.521057  130.04646  131.35872  
351  523  -33.509644  148.02054  151.76619  
352  577  -14.512268  164.84654  165.4841  
353  538  4.311035  169.34508  169.39995  
354  560  -27.667786  173.96799  176.15439  
355  555  -42.7825  183.29286  188.2196  
356  546  -15.72403  175.32095  176.02466  
357  568  -49.251526  163.07626  170.35135  
358  528  -42.150116  214.67395  218.7728  
359  584  -60.27307  222.08623  230.11983  
360  517  -62.25128  210.23022  219.2532  
361  594  -79.081665  245.20499  257.64197  
362  509  -55.799713  272.7743  278.4231  
363  596  -84.60425  248.41698  262.4288  
364  510  -77.59451  309.57492  319.15128  
365  596  -64.804596  300.76752  307.66986  
366  516  -114.924225  319.90833  339.92487  
367  584  -164.98428  336.33432  374.6206  
368  529  -199.17847  580.8091  614.0124  
369  570  -219.05804  571.4874  612.03296  
370  546  -290.01987  649.8074  711.5906  
371  553  -251.13199  818.1389  855.8146  
372  564  -410.19275  950.853  1035.5576  
373  535  -945.54517  1472.6737  1750.0924  
374  580  -1986.9644  3529.6685  4050.5044  
375  523  8230.738  -14325.427  16521.59  
376  590  1411.8207  -2355.607  2746.2922  
377  512  632.66473  -1329.8074  1472.6344  
378  597  411.77106  -760.51874  864.83765  
379  510  412.5797  -539.90076  679.496  
380  595  316.0036  -478.05853  573.0604  
381  513  281.20166  -377.50775  470.72974  
382  589  347.48883  -431.1712  553.7663  
383  524  194.38837  -287.64526  347.16946  
384  577  193.08057  -270.6561  332.46777  
385  536  207.16077  -204.86198  291.3486  
386  560  210.06744  -165.86525  267.65576  
387  555  179.34906  -181.95331  255.486  
388  543  207.3446  -123.8064  241.49495  
389  572  192.55304  -112.642365  223.08066  
390  525  180.5445  -108.44032  210.60773  
391  587  164.4107  -98.4674  191.64214  
392  515  175.37854  -116.094604  210.32259  
393  596  143.43402  -54.555325  153.4588  
394  509  176.2547  -50.699524  183.40164  
395  596  134.39764  -44.690865  141.63333  
396  511  135.42242  -39.48664  141.06178  
397  592  126.8938  -39.3327  132.8499  
398  519  124.06598  10.800711  124.535225  
399  582  165.8479  -2.9206994  165.87361  
400  532  145.00006  0.038308144  145.00006  
401  565  166.1369  2.944034  166.163  
402  549  124.3078  -10.81881  124.77771  
403  547  125.83154  38.13538  131.4834  
404  565  135.22864  39.628815  140.91568  
405  534  135.0094  43.87986  141.96118  
406  581  176.63129  50.12864  183.6069  
407  519  142.81207  54.42229  152.83022  
408  592  175.68518  116.709625  210.91805  
409  512  164.49615  98.550934  191.75836  
410  597  181.49683  109.04756  211.73679  
411  508  190.83826  111.097565  220.82098  
412  594  207.98499  124.64469  242.47485  
413  514  179.68872  182.62346  256.2018  
414  587  210.09955  166.40384  268.01505  
415  525  206.63434  205.13196  291.16467  
416  573  192.8009  271.4718  332.97015  
417  541  194.52924  287.49564  347.12442  
418  557  346.854  432.30728  554.2538  
419  559  280.9464  377.55746  470.6172  
420  539  315.16748  478.5942  573.0471  
421  577  412.8557  542.22644  681.5125  
422  524  411.242  762.3976  866.239  
423  587  631.9115  1333.4276  1475.5818  
424  513  1410.9016  2362.0576  2751.356  
425  595  8198.854  14335.034  16514.066  
426  509  -1986.1729  -3547.3357  4065.5227  
427  597  -944.7935  -1480.8473  1756.5715  
428  512  -409.542  -956.1465  1040.1638  
429  590  -251.30127  -821.74347  859.31055  
430  521  -289.72763  -653.6599  714.9919  
431  579  -218.58987  -574.72546  614.8909  
432  533  -199.31677  -583.29645  616.4105  
433  567  -165.41904  -337.80676  376.1341  
434  550  -115.224335  -323.6272  343.5276  
435  548  -65.27826  -303.39865  310.34174  
436  567  -76.805176  -310.68292  320.0358  
437  531  -84.91879  -249.88109  263.9162  
438  584  -56.546783  -274.4444  280.20932  
439  518  -78.973755  -246.98615  259.30484  
440  594  -62.642426  -212.07031  221.12868  
441  510  -61.24182  -223.85834  232.08429  
442  596  -41.736694  -216.7507  220.73247  
443  510  -49.12909  -165.05496  172.21152  
444  596  -15.328339  -175.62564  176.29329  
445  515  -42.510803  -184.08595  188.9307  
446  585  -26.809662  -175.32756  177.36548  
447  528  3.49057  -170.49335  170.52907  
448  571  -13.410187  -167.3766  167.91296  
449  545  -33.53543  -149.3281  153.0474  
450  554  -17.882446  -131.6136  132.82289  
