n v(n)    Re(T)       Im(T)        Mod(T) 
   
0  584  441343.0  0.0  441343.0  
1  580  -552.2746  -13.065308  552.4291  
2  575  -540.45233  5.42155  540.47955  
3  570  -567.3925  42.989235  569.01874  
4  564  -619.3069  39.596405  620.5714  
5  559  -621.7023  73.421524  626.0227  
6  554  -623.0799  80.55878  628.2661  
7  548  -662.8518  95.961075  669.76196  
8  543  -737.30566  111.01239  745.6161  
9  537  -790.1038  145.51631  803.3922  
10  531  -861.4087  193.0065  882.76636  
11  527  -1007.69635  231.31776  1033.9052  
12  523  -1146.6913  259.02832  1175.5835  
13  518  -1421.5236  339.79733  1461.5715  
14  514  -1890.8623  528.91315  1963.4432  
15  512  -2973.308  877.3719  3100.0552  
16  508  -7268.732  2292.2637  7621.61  
17  509  13561.287  -4516.126  14293.491  
18  508  3378.9263  -1185.0726  3580.7178  
19  509  1894.5847  -702.5244  2020.6415  
20  509  1277.521  -494.27655  1369.8063  
21  512  972.8164  -397.15396  1050.7631  
22  513  758.27686  -323.83005  824.52997  
23  518  637.1231  -293.1954  701.34827  
24  521  518.69403  -229.10167  567.0371  
25  525  470.62692  -236.67442  526.787  
26  528  399.0318  -215.04596  453.28925  
27  533  370.09222  -179.5615  411.35214  
28  540  311.9828  -169.99924  355.29285  
29  545  291.18896  -165.26453  334.81842  
30  551  268.88263  -170.54697  318.40875  
31  556  230.09552  -134.65736  266.60187  
32  563  217.46695  -153.81613  266.36682  
33  568  217.38062  -106.70116  242.15588  
34  576  187.51361  -104.59383  214.71196  
35  579  173.7164  -116.77957  209.31998  
36  582  166.42575  -127.87532  209.88004  
37  585  174.57031  -105.6676  204.05989  
38  590  133.14362  -87.059326  159.08032  
39  593  129.8198  -110.69299  170.60515  
40  594  128.31293  -92.61424  158.24539  
41  596  125.29727  -101.81976  161.45177  
42  596  112.37656  -86.4727  141.7957  
43  596  93.50058  -85.899155  126.96859  
44  596  117.42685  -81.01001  142.65935  
45  593  100.86902  -62.10582  118.455444  
46  591  109.85693  -79.67177  135.70607  
47  589  107.14581  -61.854584  123.718285  
48  584  82.68054  -81.863815  116.35186  
49  580  81.23685  -80.83472  114.60226  
50  576  76.302155  -58.898895  96.39034  
51  571  73.40109  -75.21362  105.094284  
52  565  76.64221  -75.40207  107.51512  
53  560  72.256744  -68.3875  99.48812  
54  554  64.51987  -55.87497  85.35119  
55  547  50.716064  -56.181274  75.68656  
56  541  72.44858  -60.033615  94.089485  
57  537  52.710114  -49.349182  72.20594  
58  532  53.105682  -62.024323  81.65311  
59  527  41.890503  -55.722595  69.712425  
60  523  60.203186  -51.559418  79.2641  
61  518  45.40341  -31.768906  55.414196  
62  514  58.818024  -25.865845  64.254196  
63  512  49.322174  -31.098938  58.307983  
64  512  55.333557  -29.215576  62.572777  
65  509  56.708496  -61.92627  83.968544  
66  509  42.093597  -57.444427  71.2161  
67  509  59.27008  -22.448578  63.37887  
68  509  49.028687  -34.821594  60.136143  
69  512  42.060364  -57.85446  71.52771  
70  514  40.431213  -35.34305  53.701153  
71  517  70.953064  -49.063324  86.264404  
72  520  56.998993  -43.56659  71.74213  
73  525  62.502106  -38.87271  73.604355  
74  529  72.650024  -56.414856  91.98186  
75  534  56.95984  -52.548218  77.4967  
76  540  46.829163  -49.672028  68.26625  
77  545  61.391266  -38.15085  72.27984  
78  552  47.381073  -50.434937  69.200066  
79  557  51.780823  -14.061829  53.656208  
80  562  21.217102  -18.215485  27.963715  
81  568  44.974457  -45.263367  63.808105  
82  573  51.690155  -42.119263  66.67761  
83  578  39.662445  -48.42688  62.596104  
84  583  17.905487  -48.77014  51.953182  
85  587  22.356049  -44.76416  50.036217  
86  589  31.624664  -39.178314  50.349377  
87  593  44.62915  -27.938538  52.652855  
88  598  39.698395  -19.121185  44.06339  
89  596  31.990875  -24.86856  40.51989  
90  596  31.439789  -1.7944031  31.490955  
91  596  24.491821  -20.369904  31.855648  
92  595  16.27121  -16.517426  23.18572  
93  593  43.59857  -47.31436  64.33882  
94  591  26.938751  -45.70642  53.054436  
95  588  31.44516  -22.44696  38.63501  
96  584  43.23871  -33.065186  54.432457  
97  581  19.945099  -29.27539  35.42394  
98  576  33.12625  -52.532074  62.10449  
99  570  36.41812  -17.20633  40.278248  
100  566  36.78531  -30.647736  47.87946  
101  559  27.884216  -43.441956  51.62105  
102  554  18.829346  -27.903961  33.66267  
103  548  30.574768  -47.20462  56.24138  
104  542  8.143097  -39.958496  40.779793  
105  537  31.130249  -26.586823  40.93839  
106  531  51.493744  -10.56778  52.566944  
107  526  15.65918  -16.74936  22.92926  
108  523  14.974152  -27.24884  31.092194  
109  519  20.487244  -47.375366  51.61543  
110  515  47.22113  -17.404144  50.32633  
111  512  35.598206  -22.8414  42.296124  
112  510  42.69998  -59.483063  73.22243  
113  509  22.81424  -9.416748  24.681261  
114  509  25.797455  -14.89328  29.787891  
115  509  35.655273  -30.400421  46.855995  
116  509  18.18164  -19.045044  26.33032  
117  512  34.938934  -14.95639  38.00556  
118  513  16.92279  3.99823  17.388693  
119  517  42.089783  -17.509674  45.586605  
120  521  22.705292  -19.01059  29.61305  
121  525  16.39621  -40.162994  43.380894  
122  529  35.457306  -15.700989  38.778107  
123  534  31.490448  -26.318085  41.0401  
124  540  33.095673  -2.5848083  33.196457  
125  545  49.65329  -30.155579  58.093098  
126  551  21.06604  -36.96054  42.542446  
127  558  30.512268  -15.750427  34.337654  
128  563  1.4519348  -28.942566  28.978962  
129  567  8.215027  -22.63733  24.081846  
130  574  16.314209  -22.611847  27.882772  
131  578  34.589233  -18.841583  39.388073  
132  582  0.55874634  -4.1760864  4.2132998  
133  587  18.874329  -7.819916  20.430159  
134  589  46.178253  -26.309204  53.14702  
135  592  47.21353  4.605316  47.437607  
136  598  41.973694  -25.714691  49.224346  
137  595  25.578186  -10.093414  27.497646  
138  597  25.769287  -25.919556  36.549686  
139  597  35.809296  -8.586548  36.82437  
140  596  28.867508  -26.44571  39.149822  
141  594  26.071304  -35.81726  44.301117  
142  592  25.464554  -44.840454  51.56656  
143  588  13.119064  -6.014099  14.431883  
144  585  24.666977  -17.692749  30.356106  
145  580  24.037735  -11.268707  26.548002  
146  575  32.20482  -12.147186  34.419537  
147  571  18.86139  -43.357788  47.28266  
148  565  18.616623  -10.816864  21.530983  
149  560  24.260803  -25.934937  35.513485  
150  554  -24.693054  -6.5550537  25.548302  
151  547  4.431732  -23.065125  23.487022  
152  542  19.110474  -11.176086  22.138544  
153  538  -1.7020416  -23.655579  23.716732  
154  532  17.316956  -19.460693  26.049868  
155  527  1.989563  -11.440857  11.61256  
156  522  19.777954  -10.304443  22.301323  
157  519  -8.929855  -9.807434  13.263788  
158  514  2.2542572  6.3550415  6.7430134  
159  513  -15.152023  -5.3966064  16.084377  
160  511  29.171173  12.71405  31.821445  
161  508  -19.223679  9.501892  21.44378  
162  508  20.77118  -28.901794  35.59151  
163  508  37.22467  -16.456238  40.699924  
164  509  15.895462  -20.487  25.930347  
165  512  17.884201  -7.2126465  19.283852  
166  514  26.876175  -31.74878  41.59704  
167  516  -6.873749  -34.38446  35.064793  
168  520  5.557266  -33.67816  34.133587  
169  524  15.917557  -25.528809  30.084692  
170  528  13.60704  -9.982361  16.875992  
171  533  31.91922  -13.157288  34.52464  
172  539  1.2337494  -38.779785  38.799404  
173  546  11.491974  -28.047241  30.310284  
174  551  19.21653  -32.738342  37.961483  
175  556  9.357948  -9.994751  13.691832  
176  562  15.922562  -50.405884  52.860962  
177  567  28.847275  -29.574219  41.31343  
178  573  25.619507  -5.7803955  26.263514  
179  577  -7.4789124  -5.7730713  9.447883  
180  582  14.59388  -2.8130493  14.862522  
181  586  15.809708  -8.482056  17.941353  
182  589  19.095016  -8.7873535  21.019924  
183  593  34.378952  -5.788513  34.86286  
184  594  25.637283  -6.5250244  26.454607  
185  595  13.014183  -13.636536  18.850042  
186  597  -7.146641  -22.77594  23.87086  
187  596  15.151035  7.430847  16.87517  
188  596  23.393032  -8.525818  24.898264  
189  594  12.957962  -16.357666  20.868206  
190  591  24.554398  -16.219604  29.427776  
191  588  10.445103  -30.440979  32.183125  
192  584  24.64484  -11.039368  27.004366  
193  581  2.0236225  -27.24347  27.318521  
194  575  24.095404  -17.187744  29.597416  
195  571  27.03439  -23.48883  35.81317  
196  566  -5.0026855  -28.674805  29.107925  
197  559  9.259032  0.37249756  9.266522  
198  554  30.276947  -22.929993  37.97997  
199  548  28.339958  11.309143  30.513111  
200  543  26.816431  -30.439697  40.56718  
201  537  21.373444  -11.23053  24.144335  
202  532  16.603249  -14.27179  21.894106  
203  527  10.116516  -17.486267  20.201818  
204  522  21.127718  -1.0112305  21.151903  
205  518  17.024454  -4.1349487  17.519413  
206  515  21.927816  -10.644775  24.374994  
207  512  22.776964  -21.1651  31.092628  
208  510  45.9795  -19.108093  49.791904  
209  509  30.754986  0.842041  30.76651  
210  509  19.252216  -17.424683  25.96666  
211  508  4.6243515  -5.9838257  7.5624595  
212  509  21.995594  -9.619202  24.006983  
213  511  14.978252  -20.963379  25.764536  
214  513  15.751369  -17.061035  23.220348  
215  517  12.9333725  -9.701904  16.167841  
216  520  3.7201996  1.1731567  3.9007924  
217  525  3.764244  -1.8171387  4.1798954  
218  529  32.58667  -4.7280884  32.92789  
219  533  -7.4560013  -2.6923218  7.927203  
220  539  16.149727  -17.745056  23.993763  
221  545  14.946671  -17.738525  23.196083  
222  551  11.512772  -9.871582  15.165489  
223  556  9.463402  -7.438965  12.0372  
224  563  17.45691  0.70495605  17.471138  
225  567  22.171585  -3.9546509  22.521511  
226  574  16.94522  -16.151794  23.40985  
227  578  21.600342  -12.278259  24.846136  
228  581  26.36161  -9.67865  28.082214  
229  586  11.817947  -27.493652  29.92599  
230  590  29.345718  -27.93396  40.51515  
231  592  12.338776  -3.3825684  12.794028  
232  594  7.465042  -13.213196  15.176146  
233  597  -0.25376892  -17.395813  17.397663  
234  595  37.69699  -3.4595337  37.855404  
235  597  15.495316  7.826233  17.359571  
236  596  45.598648  7.429199  46.19989  
237  593  -0.73361206  -15.518921  15.536251  
238  592  33.031693  -15.3671875  36.431347  
239  589  -3.77005  -6.3406982  7.3768377  
240  584  8.575211  -12.952515  15.533895  
241  580  39.170456  -28.608948  48.505634  
242  577  -10.347778  -23.322632  25.515127  
243  570  -11.242447  -6.704956  13.090036  
244  565  4.7725983  8.30957  9.582623  
245  560  16.675476  2.9624634  16.936579  
246  554  4.395294  -5.472412  7.0189676  
247  549  10.251923  -14.548645  17.797894  
248  543  8.837296  -14.571533  17.04193  
249  538  4.3870087  -3.836731  5.828066  
250  532  7.717926  23.780182  25.00127  
251  528  19.43341  22.128143  29.450163  
252  523  7.289032  -0.50460815  7.3064775  
253  518  28.026382  3.3729553  28.228619  
254  515  15.600311  -11.084137  19.13708  
255  512  28.589264  -12.445496  31.180706  
256  511  -6.2901917  -26.345459  27.08597  
257  510  20.020233  -14.806793  24.90082  
258  509  39.09781  -17.203186  42.7152  
259  509  1.6817017  -16.967987  17.05112  
260  510  14.829651  -0.33169556  14.83336  
261  511  18.799591  12.883789  22.790714  
262  513  12.88208  9.208557  15.834946  
263  517  -8.764496  0.22729492  8.767443  
264  519  16.57788  35.614044  39.28341  
265  525  28.012177  -15.607758  32.066868  
266  528  15.652313  -40.82016  43.718193  
267  534  13.579956  -13.855225  19.40058  
268  539  14.634674  -20.221283  24.96145  
269  545  0.90252686  8.541565  8.589114  
270  551  -1.3487854  17.842255  17.893162  
271  556  37.80374  3.5171814  37.967007  
272  563  39.54657  -27.269287  48.036915  
273  567  18.165619  -7.6620483  19.715393  
274  573  19.599823  13.231171  23.647768  
275  578  22.706085  0.6298218  22.714817  
276  582  16.257446  -14.235443  21.609081  
277  585  16.205383  -27.052612  31.535032  
278  589  20.653625  -1.8139648  20.733131  
279  592  9.119385  -27.82602  29.282257  
280  595  0.9806824  0.658905  1.1814795  
281  596  24.846222  -17.78894  30.557833  
282  597  31.502197  5.1427307  31.919212  
283  596  26.073273  -25.3797  36.38605  
284  596  2.5684814  -13.250946  13.49758  
285  593  2.0630188  -13.055634  13.217625  
286  592  36.98236  -11.669189  38.779697  
287  588  14.610718  22.499329  26.827091  
288  585  23.76419  9.710846  25.671722  
289  581  15.150665  -22.032532  26.739017  
290  576  34.681335  -29.42575  45.48263  
291  571  12.738831  -1.5153503  12.828643  
292  565  -1.1120605  -4.0708313  4.2199936  
293  560  9.215149  16.204742  18.641691  
294  555  -3.3833008  -20.357086  20.636318  
295  550  33.91086  -8.53363  34.968117  
296  543  3.5379944  -20.492523  20.795694  
297  537  19.8432  -23.220612  30.54422  
298  531  -8.367645  12.205261  14.798172  
299  527  8.8715515  3.786377  9.645781  
300  523  8.712891  -6.7866516  11.044143  
301  519  15.7873535  -0.38153076  15.791963  
302  516  10.98938  -23.644196  26.073252  
303  512  1.0855408  -17.998322  18.031029  
304  510  9.055725  4.3616333  10.051368  
305  509  22.62616  4.6470947  23.098454  
306  508  36.368073  -14.223419  39.05051  
307  508  10.965485  1.7616882  11.106097  
308  510  8.421082  -8.932312  12.276026  
309  511  7.8988647  -1.1460266  7.981569  
310  513  19.073486  1.4573059  19.129078  
311  516  28.74826  -18.39441  34.129414  
312  520  24.920502  -7.6591187  26.070932  
313  524  10.22879  -8.573151  13.346425  
314  528  19.79834  -8.283417  21.461344  
315  533  29.49408  -5.2287292  29.95397  
316  539  4.9465637  -9.938629  11.101569  
317  545  7.641815  4.520508  8.878757  
318  550  11.683624  -5.246643  12.80759  
319  557  22.01001  1.704071  22.075878  
320  562  16.344788  -8.085236  18.235216  
321  567  13.010895  -15.082397  19.918888  
322  572  4.235901  3.0679321  5.230207  
323  578  35.184723  3.1036987  35.32135  
324  582  8.207397  14.114655  16.327427  
325  586  2.7160645  -4.244507  5.039131  
326  589  6.6236267  0.09085083  6.6242495  
327  592  43.829468  -3.0115051  43.932804  
328  596  17.782074  -10.772186  20.790434  
329  596  23.331573  -8.936188  24.98435  
330  596  12.037994  -14.9010315  19.156044  
331  595  12.751282  -0.8076782  12.776835  
332  596  17.358887  -15.877991  23.525337  
333  595  1.7499695  -1.2623291  2.157746  
334  591  -1.4202576  20.476349  20.525545  
335  589  11.7569275  12.421143  17.102928  
336  585  28.918854  -10.308594  30.701258  
337  581  25.282043  -19.15561  31.71938  
338  576  9.498566  -1.809967  9.669474  
339  571  5.477234  -14.457642  15.460384  
340  565  19.918121  8.0504  21.483494  
341  560  7.49411  2.9754791  8.063198  
342  555  3.0498657  -3.8786469  4.934124  
343  548  0.06817627  4.2729034  4.2734475  
344  543  30.759613  -9.659714  32.24072  
345  539  -0.17086792  3.457489  3.4617085  
346  532  16.717072  27.369019  32.070606  
347  527  34.884094  2.5225677  34.97518  
348  523  -4.234894  3.383316  5.4204383  
349  519  -5.3465576  -3.5401154  6.412339  
350  516  19.390503  -17.011185  25.794806  
351  513  4.4137573  -30.16359  30.484806  
352  510  13.351074  1.2707977  13.411418  
353  510  4.852661  -0.27130127  4.860239  
354  508  20.532166  -23.189056  30.972603  
355  509  -17.10849  -9.466537  19.552896  
356  509  32.26892  -6.8978577  32.997932  
357  511  0.87268066  -4.046753  4.1397805  
358  512  5.218994  -12.48262  13.529735  
359  517  7.562866  6.3438263  9.871224  
360  520  6.498535  12.713364  14.277975  
361  524  11.300354  -12.197052  16.627268  
362  528  -7.069641  -7.1943207  10.08653  
363  533  1.2962036  4.441925  4.627185  
364  538  6.2946777  -13.165939  14.593318  
365  544  12.818665  -1.4215393  12.897245  
366  550  10.696533  -5.40567  11.98487  
367  555  -11.504639  14.0894165  18.189787  
368  560  2.0037842  -0.4593811  2.055768  
369  567  16.534668  -6.853653  17.89882  
370  572  7.429199  12.420929  14.473164  
371  577  22.688477  2.1556854  22.790655  
372  582  36.93683  -21.576439  42.777004  
373  586  14.602661  10.336754  17.890953  
374  589  23.235962  8.288414  24.669975  
375  591  20.893188  -6.384781  21.846985  
376  594  27.828613  0.6368637  27.8359  
377  596  47.016357  -14.517181  49.20657  
378  596  23.164001  -12.776352  26.45385  
379  597  13.381531  -13.463898  18.982674  
380  595  19.631042  11.243095  22.622667  
381  593  15.563721  -0.91095734  15.590358  
382  592  19.985352  -1.8653336  20.072212  
383  589  30.31543  -26.072166  39.984787  
384  586  26.501282  -21.997696  34.441494  
385  582  -4.0548706  2.3314514  4.6773543  
386  577  20.73645  -26.60426  33.7311  
387  571  16.721313  4.615185  17.346535  
388  566  26.646301  2.1156387  26.730158  
389  561  13.703125  -0.8570862  13.729903  
390  555  14.804443  -13.96767  20.353558  
391  549  4.5754395  14.128483  14.850882  
392  543  19.252563  0.5334778  19.259953  
393  538  0.38946533  -0.63392067  0.7440018  
394  532  5.590454  -1.1960049  5.7169576  
395  527  6.670044  -20.144592  21.220133  
396  524  13.819641  -3.2647743  14.200044  
397  519  20.17096  3.7433214  20.515362  
398  515  -5.3810425  8.755011  10.276469  
399  512  22.594604  -1.5350385  22.646688  
400  511  15.000732  -0.50333214  15.009174  
401  509  22.849243  0.5728698  22.856422  
402  508  -5.0161133  -9.718498  10.936664  
403  508  19.29187  -6.008396  20.205868  
404  510  13.604675  2.4634914  13.825917  
405  511  7.2855225  18.333088  19.727669  
406  513  6.0495605  -0.4482479  6.0661445  
407  516  -0.2565918  -0.46889114  0.53450745  
408  519  19.721619  -0.97229385  19.745571  
409  524  4.7871094  -15.101429  15.842019  
410  528  15.776733  13.510361  20.771017  
411  534  12.046143  -1.807724  12.181027  
412  538  27.362244  -2.6464615  27.48993  
413  544  17.243774  -5.202484  18.011484  
414  551  20.906982  25.670734  33.107227  
415  556  -4.463318  -3.4893494  5.6654005  
416  562  26.33905  21.280144  33.861336  
417  567  30.504578  24.372627  39.04554  
418  572  19.782593  0.9979248  19.807747  
419  577  15.571777  -1.0111847  15.604574  
420  582  19.154907  -12.939018  23.115551  
421  586  13.863098  12.821205  18.88303  
422  588  22.963562  11.131477  25.519306  
423  592  47.006836  13.335632  48.861862  
424  594  28.615417  -2.5619583  28.729876  
425  597  21.480042  5.341736  22.13428  
426  596  24.238403  -9.300499  25.9615  
427  596  15.071472  -11.752853  19.112268  
428  595  37.137573  20.301056  42.324135  
429  594  22.159546  -3.182579  22.386923  
430  592  7.4417114  -13.956619  15.816646  
431  590  16.746216  5.5146027  17.63084  
432  584  1.4384155  -0.71673584  1.6070936  
433  581  -11.967468  -14.441925  18.756052  
434  577  10.193054  2.6456757  10.530809  
435  571  12.244873  -0.38931274  12.2510605  
436  567  6.948059  12.8177185  14.5797615  
437  561  0.9467163  -5.143936  5.23033  
438  554  -7.8690186  6.199829  10.01795  
439  549  11.376343  11.050293  15.859702  
440  543  6.0803223  -14.015274  15.277376  
441  538  6.6297607  -7.528946  10.031887  
442  533  5.5  10.903717  12.212332  
443  527  0.9574585  2.4582062  2.6380873  
444  523  32.60736  7.0492554  33.360634  
445  520  -16.907318  9.051788  19.177912  
