n v(n)    Re(T)       Im(T)        Mod(T) 
   
0  509  442251.0  0.0  442251.0  
1  547  -35.933838  11.617568  37.76518  
2  596  13.377319  10.852135  17.225605  
3  545  12.304016  24.574875  27.482964  
4  511  -8.274719  -17.427536  19.292227  
5  573  -7.11615  7.7028847  10.48685  
6  588  12.436462  -3.1788101  12.836293  
7  523  -3.2653809  11.102604  11.572836  
8  526  10.398804  13.508911  17.04775  
9  591  -8.586365  -2.1609688  8.85412  
10  573  22.136108  17.945457  28.496433  
11  511  -9.747437  -6.5146675  11.724052  
12  544  -1.7921143  9.04023  9.21615  
13  597  17.146057  7.051262  18.539352  
14  547  8.423462  34.185448  35.207947  
15  511  -21.660461  21.328102  30.398413  
16  569  26.045471  9.447433  27.705967  
17  590  -12.948425  11.2475815  17.151379  
18  525  6.3601074  -36.825012  37.37021  
19  520  -11.352356  -1.1112213  11.406612  
20  586  6.055847  -8.916496  10.778552  
21  575  9.680115  8.5394745  12.908418  
22  512  10.963684  -6.303589  12.646644  
23  541  -4.927063  -6.062546  7.8121963  
24  597  -12.067017  11.32592  16.549603  
25  552  -9.766541  -7.1031876  12.0764475  
26  508  11.428955  29.859436  31.971972  
27  567  0.69311523  -18.031937  18.045252  
28  592  0.95599365  -16.314796  16.342781  
29  532  -3.513855  -11.152222  11.692699  
30  518  0.4746704  17.069397  17.075996  
31  584  15.759399  4.674103  16.43794  
32  578  -15.501038  12.089615  19.658102  
33  514  -93.875916  -73.76196  119.388084  
34  536  10.456787  2.8755798  10.844969  
35  596  -12.215454  17.428864  21.283388  
36  554  -3.4905396  -6.6771545  7.534471  
37  509  1.3027954  -12.46283  12.530739  
38  563  -2.2128296  -37.20508  37.27083  
39  595  6.6952515  20.883102  21.930124  
40  534  -6.036499  -21.881226  22.69862  
41  515  7.91333  -15.664917  17.550224  
42  582  -12.421265  7.4161835  14.466776  
43  582  -8.0651245  -15.110214  17.127895  
44  517  -42.023376  11.210983  43.493107  
45  535  -14.862122  -10.070618  17.952715  
46  596  -16.519287  4.3845825  17.091267  
47  558  -19.281128  -14.528473  24.142048  
48  509  -12.3880005  -17.77739  21.667906  
49  554  -47.840454  -21.154694  52.308987  
50  596  -124.43945  -60.591873  138.4072  
51  538  96.087524  29.797897  100.60183  
52  514  19.76532  14.540466  24.537584  
53  578  21.187714  17.056366  27.19998  
54  585  17.652496  15.925491  23.774607  
55  518  24.543854  -5.987137  25.263542  
56  531  9.2873535  10.906326  14.324904  
57  593  -4.605835  14.255539  14.981125  
58  568  21.765472  11.246445  24.499353  
59  509  5.3969116  20.216675  20.92464  
60  551  8.945984  -12.93277  15.725367  
61  596  1.9504395  -7.2426147  7.5006456  
62  543  -6.1377563  -7.169525  9.43791  
63  511  -5.156311  4.649536  6.9430346  
64  575  -19.951904  0.48989868  19.957918  
65  588  -14.521423  -3.3833008  14.910347  
66  523  40.355103  -21.371643  45.664883  
67  523  2.3182983  0.42877197  2.357616  
68  588  0.22695923  -21.382599  21.383804  
69  573  -16.477203  -10.065369  19.308285  
70  510  2.463623  11.455811  11.717723  
71  544  -18.06784  -14.809326  23.36157  
72  597  20.72931  -8.211548  22.296497  
73  548  8.285187  1.7959595  8.477605  
74  510  31.439728  1.4472656  31.473022  
75  569  30.664215  -5.014923  31.071587  
76  590  27.415405  -6.9358826  28.27916  
77  529  -0.7637329  7.194214  7.2346387  
78  519  -2.5870667  -17.157104  17.351055  
79  585  -4.9576416  14.994934  15.793235  
80  578  5.356842  17.762238  18.552435  
81  512  36.542725  0.103759766  36.542873  
82  539  -12.109283  9.8591  15.615269  
83  596  27.290955  37.757538  46.587852  
84  554  -8.964447  10.181793  13.565774  
85  509  5.8507385  25.812286  26.46706  
86  565  0.57666016  -22.584473  22.591833  
87  595  -4.688751  -14.216919  14.970143  
88  534  4.5979614  -8.947113  10.059427  
89  516  12.442139  4.6797485  13.293113  
90  581  6.699524  18.982971  20.130495  
91  581  11.6658325  -21.786194  24.71295  
92  515  1.1706238  -9.899384  9.968358  
93  535  14.553741  16.840271  22.25772  
94  596  9.098145  7.6889343  11.912008  
95  559  -22.585052  2.4678345  22.71948  
96  509  -0.2828369  -10.208832  10.212749  
97  554  -2.2084045  -11.040192  11.258903  
98  596  -11.332397  -11.041534  15.822096  
99  541  5.390625  24.874329  25.45174  
100  512  -9.823029  13.696594  16.854927  
101  575  41.319794  -11.821777  42.977665  
102  587  10.701843  -2.3694763  10.961016  
103  519  -3.3162842  2.0906372  3.9202685  
104  529  4.80777  -2.9374084  5.634094  
105  592  19.759338  12.649261  23.461357  
106  571  -20.350586  -22.236694  30.143274  
107  510  21.562805  4.491455  22.025616  
108  548  12.026611  13.908051  18.386768  
109  597  18.393158  -18.019257  25.748821  
110  544  18.67453  -23.324036  29.8789  
111  512  22.332092  -38.76001  44.73322  
112  573  4.3374023  30.572876  30.879019  
113  588  -13.377533  -4.885895  14.241852  
114  520  5.7904053  -27.993896  28.586485  
115  524  3.5578613  -32.64038  32.833714  
116  589  -15.453491  -100.96893  102.144684  
117  572  -17.753632  28.476196  33.557194  
118  510  -13.659546  15.056946  20.329653  
119  547  -7.363617  14.69812  16.439512  
120  597  24.881165  6.1690674  25.63454  
121  549  1.0756836  -22.86325  22.88854  
122  509  -0.81137085  2.3944397  2.5281742  
123  569  6.164551  3.413269  7.046424  
124  590  30.27353  -20.84076  36.753555  
125  528  -18.021973  10.369354  20.792187  
126  520  -8.861206  -10.813293  13.980282  
127  586  3.2782898  -19.344269  19.62009  
128  575  16.04776  -7.9811707  17.922882  
129  510  17.702515  -34.9404  39.169  
130  542  31.22409  -15.365387  34.799984  
131  597  18.204803  -47.163635  50.55515  
132  550  8.467194  -27.44223  28.718798  
133  509  30.125854  -132.281  135.66809  
134  568  -12.719391  286.3994  286.6817  
135  593  -30.065125  34.755096  45.954636  
136  530  -17.883759  44.414856  47.880146  
137  518  -1.5097351  0.10598755  1.5134509  
138  585  -8.022186  13.270203  15.506572  
139  577  14.842651  21.251099  25.921295  
140  513  6.162781  -13.271301  14.632406  
141  540  4.297638  28.74585  29.065332  
142  597  0.06362915  13.645142  13.64529  
143  552  -3.4868774  -6.935608  7.762794  
144  508  6.7792206  19.877106  21.001362  
145  560  -8.447372  27.746307  29.003717  
146  595  5.356415  -10.02771  11.368648  
147  533  -11.332138  -19.414062  22.479395  
148  517  27.442352  1.3934326  27.477707  
149  584  32.662247  -35.424316  48.18407  
150  580  -5.8706512  12.607239  13.907085  
151  515  10.881393  -9.205139  14.252695  
152  537  21.596176  15.037964  26.316063  
153  595  1.5450287  1.0102539  1.8460028  
154  562  15.27887  -17.873108  23.513653  
155  509  8.930847  -11.585754  14.628388  
156  557  13.402008  2.6242065  13.65651  
157  595  -4.820877  28.731628  29.133268  
158  537  35.97255  29.880676  46.76408  
159  515  -0.14816284  -5.5997925  5.6017523  
160  580  5.0634766  15.597229  16.398548  
161  584  16.41681  6.1468506  17.529844  
162  518  28.53302  -9.478088  30.066051  
163  527  -1.4940948  11.66687  11.76215  
164  592  23.142334  16.958862  28.69095  
165  564  20.13118  9.761597  22.373045  
166  508  1.3265228  18.582458  18.629745  
167  552  31.941788  -43.877197  54.272335  
168  597  5.989975  -27.53534  28.17933  
169  542  5.565811  18.64972  19.462536  
170  512  29.419968  21.996338  36.733818  
171  574  26.243805  -6.722473  27.091124  
172  586  29.048813  -2.248413  29.135698  
173  524  2.063568  2.6236572  3.3379471  
174  524  40.056046  -18.618225  44.171543  
175  590  0.2120285  -22.184204  22.185217  
176  571  -1.883873  -7.4576416  7.6919045  
177  511  25.047707  -6.4102173  25.854952  
178  547  -5.059967  10.545715  11.696811  
179  597  28.99131  2.0472412  29.063503  
180  546  35.39724  -7.401428  36.162766  
181  511  28.81688  -9.241028  30.262339  
182  571  4.55336  11.144775  12.039065  
183  592  -11.555893  -17.568054  21.027962  
184  528  16.155815  28.327942  32.61108  
185  520  25.351524  4.209717  25.698668  
186  586  22.59251  18.717651  29.338915  
187  576  26.380554  -33.118103  42.34079  
188  513  40.39882  1.3741455  40.422184  
189  542  19.606117  -22.163574  29.590942  
190  596  17.260387  -39.4021  43.016815  
191  552  23.050022  4.3155518  23.450533  
192  509  33.065205  -12.740845  35.434967  
193  561  39.25708  5.95874  39.706738  
194  594  38.553795  25.910645  46.45166  
195  532  47.502438  5.908142  47.868443  
196  516  45.579998  -36.28363  58.258373  
197  583  12.450812  -19.351868  23.011248  
198  581  66.66354  -21.140625  69.935356  
199  514  104.562096  -40.258423  112.04451  
200  536  -4.363878  -7.355713  8.552773  
201  595  18.75834  28.070923  33.761696  
202  562  52.311363  7.569702  52.856213  
203  509  42.993515  -36.24121  56.230488  
204  556  65.35717  11.473938  66.3567  
205  596  63.217556  -29.811829  69.89424  
206  538  33.685707  -77.45917  84.46685  
207  515  82.72777  18.057495  84.6756  
208  579  64.05267  -67.13031  92.785904  
209  583  -14.929855  154.54456  155.26404  
210  518  370.93704  -9.721313  371.06442  
211  528  224.16835  -28.933044  226.0278  
212  592  110.76694  -59.490906  125.73179  
213  567  199.56215  18.998047  200.4644  
214  509  349.04468  -238.7002  422.85928  
215  552  205.25557  -389.64905  440.4046  
216  596  461.8513  -319.24353  561.44727  
217  542  -16355.924  6424.7935  17572.541  
218  512  -494.6592  36.87372  496.03165  
219  576  -376.6383  -148.17816  404.7384  
220  586  -394.21832  47.941956  397.1228  
221  524  -145.22217  102.6051  177.8125  
222  525  -130.49573  -30.40686  133.99146  
223  590  -206.83363  100.511566  229.96245  
224  569  -297.00604  248.46997  387.23367  
225  510  112.544624  115.689514  161.40123  
226  549  -109.17134  -8.675232  109.51549  
227  596  -63.309883  71.06662  95.176704  
228  544  -56.081436  -32.920776  65.03003  
229  512  -93.108185  35.41913  99.61751  
230  573  -64.31059  40.029846  75.75118  
231  591  -37.761658  28.225647  47.144775  
232  525  -31.167282  41.805664  52.145115  
233  523  -17.806076  19.55951  26.450533  
234  590  -35.465866  33.343628  48.678795  
235  572  -87.94307  -4.8622437  88.07738  
236  510  -70.273575  29.179993  76.09105  
237  547  -40.429245  4.4856567  40.677326  
238  598  -80.33954  4.142578  80.44627  
239  547  -39.615433  1.5505981  39.645767  
240  510  -23.948639  23.919739  33.84806  
241  567  -32.579742  24.525696  40.779274  
242  592  -40.49884  28.68988  49.631294  
243  527  -1.8729858  -4.637146  5.0011196  
244  521  -35.312714  -10.22052  36.762028  
245  587  -47.673813  -1.0814209  47.686077  
246  575  -27.186874  27.11145  38.394753  
247  512  -52.050156  22.599182  56.744534  
248  544  -23.319809  17.85913  29.37281  
249  597  -35.608185  25.580536  43.844116  
250  554  22.086823  -52.691284  57.133167  
251  508  11.183548  -16.995667  20.345133  
252  564  -1.3210297  25.738861  25.77274  
253  595  -22.251053  8.223145  23.721918  
254  529  -38.186325  25.673645  46.01447  
255  519  -38.062103  37.299316  53.2913  
256  585  -1.6372223  15.375946  15.462866  
257  576  -43.84366  6.996338  44.39837  
258  514  3.7586365  -1.8668823  4.196737  
259  540  -9.149963  6.9594116  11.495879  
260  596  -32.09259  -9.661682  33.515408  
261  554  -33.595245  13.249054  36.113403  
262  509  -13.621063  42.601746  44.7263  
263  564  -26.543243  24.218964  35.931908  
264  595  -4.6833496  -1.2121582  4.837674  
265  529  -29.404816  -12.450775  31.932194  
266  520  12.750916  25.058472  28.11606  
267  586  -42.478333  53.982056  68.691124  
268  577  -3.0638123  -26.696594  26.871826  
269  516  -4.6853333  -0.39718628  4.7021384  
270  535  7.566925  -4.723297  8.920083  
271  595  -3.411316  6.401825  7.253995  
272  557  -43.690094  22.703186  49.236767  
273  509  -8.558868  -9.742371  12.967961  
274  560  -17.370148  -1.704834  17.45361  
275  594  -8.922821  2.5297241  9.274494  
276  533  7.0115356  33.80652  34.525967  
277  516  -24.47821  13.837585  28.118706  
278  583  -28.141418  17.919739  33.362503  
279  584  -9.545868  3.3251343  10.108418  
280  517  -24.506317  -12.616974  27.56352  
281  534  -2.8937073  18.073944  18.304125  
282  594  -3.9424438  43.783478  43.960617  
283  562  -72.948364  -54.565704  91.09819  
284  509  -32.110992  -14.379944  35.183784  
285  556  -42.59085  3.873291  42.766613  
286  596  -25.805481  7.7178345  26.934881  
287  538  8.261078  27.463684  28.67925  
288  512  -7.1661377  12.498352  14.407023  
289  575  4.236084  33.39212  33.65974  
290  587  -15.2907715  28.83783  32.640896  
291  521  -8.790314  -6.034973  10.662576  
292  528  11.101807  -3.7603455  11.721362  
293  592  -7.260071  8.712738  11.341095  
294  567  -20.876678  7.8143005  22.291231  
295  508  -4.005707  10.007477  10.779391  
296  551  -4.7913513  38.00052  38.30139  
297  597  8.439392  23.736877  25.192513  
298  549  25.781616  16.156158  30.425535  
299  511  37.14505  61.663727  71.98729  
300  571  181.14105  193.64114  265.1584  
301  590  -77.77438  -67.80591  103.18186  
302  525  -33.770233  -17.7388  38.14569  
303  523  -53.022156  1.4821472  53.04287  
304  590  -27.525879  -12.763275  30.340982  
305  572  -24.440125  6.58078  25.310598  
306  511  -24.98056  -1.2796326  25.013313  
307  545  -21.770996  21.569702  30.646832  
308  596  -17.65329  -24.986359  30.59341  
309  553  -33.85547  17.968262  38.3282  
310  509  -13.666046  17.2872  22.036518  
311  565  -30.953491  13.211975  33.655235  
312  593  -15.906342  6.322418  17.116795  
313  529  0.4173584  8.223999  8.234583  
314  519  -41.068207  3.6743774  41.232254  
315  586  -26.509125  26.813507  37.70541  
316  576  29.124542  -5.880066  29.712189  
317  516  -21.48816  19.62503  29.101252  
318  537  -19.111206  -35.82437  40.60325  
319  596  -23.68515  -7.187317  24.751644  
320  557  -11.070648  -6.309662  12.742491  
321  509  -8.723389  22.352386  23.994305  
322  561  2.7386475  1.2145386  2.9958794  
323  594  -7.5013123  3.6821594  8.356314  
324  531  -5.461334  -4.7292175  7.22438  
325  518  -8.519531  -8.377563  11.948472  
326  584  -19.092194  -0.7669678  19.107594  
327  583  -33.66916  2.012909  33.729275  
328  517  -15.852234  -23.126953  28.038355  
329  533  -29.961914  1.8301697  30.01776  
330  595  -12.40802  -7.9408264  14.731452  
331  559  -4.807312  -5.228058  7.102312  
332  509  4.7632446  -16.439545  17.115698  
333  558  64.98541  -2.197113  65.022545  
334  596  -21.49356  -13.415924  25.336933  
335  535  -28.161072  28.521698  40.08158  
336  513  -20.623901  -2.4585266  20.769922  
337  577  -31.641205  1.2441406  31.665655  
338  585  -22.20465  -2.9555664  22.400488  
339  518  -10.635498  3.952301  11.346123  
340  532  -25.112366  -21.61499  33.133648  
341  593  -45.341187  10.652222  46.57567  
342  562  -20.146576  -18.02385  27.03227  
343  508  -16.569458  -9.148285  18.927177  
344  557  -12.797852  0.20953369  12.799566  
345  596  -24.365387  -8.98259  25.968424  
346  541  -11.762695  -14.815872  18.91748  
347  511  8.627563  6.0645905  10.54581  
348  576  -21.455383  0.28623962  21.457293  
349  586  -17.73169  -2.911438  17.96912  
350  519  -40.892914  -2.3460083  40.96015  
351  529  41.03766  -11.33226  42.573578  
352  592  4.1606445  -2.8341522  5.034221  
353  564  -33.451477  18.201263  38.082638  
354  508  9.518677  3.380539  10.1011505  
355  553  -1.4541016  1.3095703  1.9568816  
356  597  -22.975342  20.917679  31.071138  
357  544  -13.712769  4.222931  14.348281  
358  511  -12.87323  -0.9154358  12.905738  
359  573  -16.39264  17.812454  24.207481  
360  588  10.250732  30.846008  32.504673  
361  522  -1.4887085  17.425873  17.489347  
362  527  -8.94928  -14.475861  17.018818  
363  592  9.647827  -6.2051086  11.4710045  
364  569  -12.323975  -5.941269  13.681339  
365  511  -7.3859863  -12.764374  14.7472725  
366  545  -7.0701294  -52.344803  52.82012  
367  597  -2.9768677  26.870422  27.034817  
368  549  -27.849121  -1.9931335  27.920353  
369  510  14.258606  16.320297  21.67164  
370  569  3.0628052  -3.900299  4.959144  
371  589  -0.45178223  -5.092331  5.1123323  
372  525  -30.18457  4.3844986  30.501347  
373  523  -31.188843  4.0730057  31.453669  
374  589  -39.70117  -15.654205  42.675957  
375  577  -10.64801  6.2529984  12.348284  
376  513  13.425659  1.4405441  13.502722  
377  540  -11.747437  -29.276535  31.545486  
378  596  -15.96405  38.954453  42.098698  
379  553  -29.377747  -1.2960892  29.406324  
380  509  -18.558105  29.19468  34.593822  
381  565  -8.146057  32.235397  33.248745  
382  593  -12.00293  23.740662  26.60243  
383  528  -25.764893  119.46856  122.21525  
384  516  15.531067  -104.85103  105.995056  
385  583  0.8387451  -46.50437  46.511936  
386  581  1.5901489  -21.620686  21.679083  
387  515  -2.8517456  -15.172409  15.438085  
388  537  18.570618  -4.7029877  19.156878  
389  595  10.527405  -3.0813713  10.969097  
390  559  -0.1296997  8.695663  8.6966305  
391  509  -31.691895  -21.938717  38.544563  
392  560  -36.27301  -22.076591  42.46301  
393  596  -35.71698  -3.4185085  35.8802  
394  539  -22.8349  -2.0521374  22.926926  
395  514  -29.033997  -0.39551353  29.03669  
396  579  -10.451843  -9.327923  14.008967  
397  584  -24.16571  13.904426  27.880363  
398  519  -7.6238403  7.80532  10.910818  
399  531  -13.831848  24.547268  28.176025  
400  595  -2.9992676  -0.46091294  3.0344763  
401  563  -13.545471  -25.473427  28.850914  
402  508  -7.2649536  -8.711401  11.343194  
403  555  -25.086609  -16.207329  29.866629  
404  597  -10.706604  8.543015  13.697243  
405  544  -28.48236  -1.3458729  28.514141  
406  512  -22.44635  0.49799538  22.451874  
407  573  -36.26129  2.2929459  36.333714  
408  588  -35.919983  21.61819  41.923637  
409  521  -31.457397  20.947178  37.79355  
410  528  0.98046875  -9.100857  9.153519  
411  592  8.848206  0.5085106  8.862805  
412  569  19.283264  4.292137  19.755169  
413  511  -2.5220337  14.613529  14.829561  
414  545  1.6794434  20.819649  20.887276  
415  597  0.33343506  45.43743  45.438652  
416  548  15.086731  104.16493  105.25181  
417  509  -25.326233  -121.28472  123.90077  
418  570  -12.1813965  -24.530884  27.38888  
419  590  -8.113831  -34.059715  35.012833  
420  524  -19.03186  -30.835686  36.23605  
421  524  -28.700989  0.74031067  28.710535  
422  590  -16.080872  -40.539093  43.61207  
423  575  -11.767151  28.092567  30.457481  
424  512  14.251526  -3.3602066  14.642301  
425  543  -10.036926  -7.161705  12.330041  
426  597  -38.75232  14.704987  41.44851  
427  551  -30.79248  -5.31649  31.248072  
428  509  -29.811829  -5.6196747  30.336872  
429  568  -0.9251709  4.1432953  4.2453313  
430  591  3.1508179  2.429016  3.9784133  
431  527  14.594055  -17.546906  22.822803  
432  518  -28.434937  0.85395813  28.447756  
433  585  -3.3700562  -27.006454  27.215912  
434  579  -7.5705566  49.664062  50.23776  
435  513  -8.039124  10.998581  13.623373  
436  539  -11.737305  5.642151  13.022987  
437  595  9.239075  5.607773  10.807757  
438  553  -9.908447  13.479797  16.729683  
439  508  -1.5081177  -18.515732  18.57705  
440  565  9.791626  -32.01062  33.474705  
441  593  -17.414307  -18.964676  25.747175  
442  535  -12.641724  -0.6315613  12.65749  
443  517  -13.639709  -5.7461395  14.800669  
