n v(n)    Re(T)       Im(T)        Mod(T) 
   
0  552  442303.0  0.0  442303.0  
1  520  -16.987122  -26.839622  31.76362  
2  597  -11.417236  -84.0488  84.82072  
3  525  -6.854309  4.482544  8.189918  
4  546  -13.660645  6.9019604  15.305236  
5  589  -29.02478  -3.5361958  29.2394  
6  510  -38.291626  3.297514  38.43335  
7  575  -40.67157  -7.855591  41.423267  
8  565  -60.047424  -42.750397  73.71085  
9  514  -47.12799  -18.800266  50.739506  
10  578  -12.113098  29.05069  31.474905  
11  562  -24.206787  15.165283  28.564915  
12  515  -43.36841  22.592712  48.900406  
13  596  -31.974304  18.358086  36.86971  
14  533  -29.805664  23.62497  38.0331  
15  536  -54.756042  204.6735  211.87134  
16  595  -60.54962  -182.16287  191.96242  
17  513  -99.60956  -84.57016  130.66818  
18  565  8.968628  -22.46724  24.19118  
19  594  -31.266113  -3.8764648  31.505505  
20  512  -15.243713  -59.97516  61.88207  
21  567  -8.329407  -43.694862  44.48168  
22  576  -28.041931  -34.257553  44.271095  
23  509  -23.004517  -5.0401306  23.550173  
24  588  -51.219666  -3.4929886  51.33863  
25  549  -54.717834  0.7291794  54.722694  
26  523  -29.347534  -23.401993  37.53573  
27  597  -59.282227  -6.730789  59.6631  
28  525  -33.726685  -51.117355  61.241108  
29  522  -11.770264  5.890877  13.162126  
30  597  7.871765  -28.753242  29.8113  
31  525  -85.463196  -38.382523  93.686584  
32  547  -73.67444  -36.272858  82.11969  
33  591  -128.01654  113.79239  171.2803  
34  511  -7.4866333  -13.588608  15.514507  
35  570  384.75345  292.6664  483.41373  
36  572  -27.037842  7.929886  28.176727  
37  510  -62.48871  48.158295  78.892715  
38  589  -32.60144  10.839294  34.35614  
39  574  5.5357666  -2.4174957  6.040612  
40  510  -21.3638  14.927963  26.06254  
41  588  -26.24585  47.857178  54.58163  
42  550  31.094574  -23.297256  38.85402  
43  521  -12.84903  38.81584  40.88725  
44  596  -13.597534  23.709305  27.331741  
45  527  38.680084  -23.7193  45.373497  
46  544  14.669769  -32.370163  35.539127  
47  592  39.213104  4.9878235  39.529053  
48  529  242.3952  142.11748  280.98544  
49  542  -150.90594  -76.30267  169.09969  
50  593  -52.901306  -97.76532  111.16027  
51  513  -161.42795  -7.594864  161.6065  
52  567  -92.74887  -35.891937  99.45142  
53  576  -32.87674  13.864548  35.680607  
54  510  -51.775116  19.935074  55.480354  
55  585  -71.61304  32.85872  78.79164  
56  554  -53.304413  -31.294434  61.811825  
57  521  -62.872406  -1.9388733  62.902294  
58  585  -67.270905  -33.245773  75.0377  
59  554  -36.06308  4.102066  36.295628  
60  518  -51.28183  55.282715  75.4056  
61  596  -57.296173  -0.4093933  57.297638  
62  531  -66.037445  16.8414  68.15114  
63  537  -67.324615  12.761154  68.52336  
64  594  -37.97281  -15.42688  40.986862  
65  514  -55.338745  36.976654  66.55561  
66  563  -153.00195  -80.437225  172.85759  
67  593  -107.503265  21.286621  109.59048  
68  512  154.09726  -135.26819  205.04498  
69  564  -1.8097229  -24.936829  25.002409  
70  579  -5.5877686  -16.668915  17.580553  
71  509  -37.67163  -4.8804016  37.986446  
72  586  -29.798218  2.8126526  29.930666  
73  553  -31.958588  5.006378  32.34834  
74  520  -35.27536  -14.181671  38.01935  
75  596  -49.724976  -5.861847  50.069298  
76  528  -18.904419  2.5613403  19.077147  
77  521  -33.567932  -8.982422  34.748955  
78  597  -16.502563  -19.271484  25.37173  
79  527  -3.9422302  13.1718445  13.749133  
80  542  -26.5484  3.5601196  26.786041  
81  591  -90.821625  52.908234  105.10875  
82  510  16.148407  -2.1609192  16.292349  
83  570  10.207947  70.33899  71.07584  
84  571  -22.71518  -60.130463  64.27792  
85  512  57.006714  -24.618713  62.095463  
86  591  -79.97757  -35.148956  87.36052  
87  568  -42.52179  15.754578  45.346546  
88  512  -48.16208  -26.108826  54.78373  
89  591  -56.25641  -53.821167  77.855644  
90  541  -54.606903  -25.100891  60.099655  
91  530  -43.417145  -8.739166  44.287937  
92  597  -29.322693  3.014038  29.47719  
93  519  -43.266144  -2.2824097  43.326305  
94  555  -31.035583  -4.0473022  31.298372  
95  583  -64.131195  -9.782318  64.872986  
96  517  -60.228912  -30.369202  67.452286  
97  558  -58.095398  -21.940552  62.100426  
98  582  -174.34464  12.265442  174.77554  
99  508  263.47488  -140.6485  298.6654  
100  573  7.6665955  -79.07684  79.44762  
101  569  22.504242  76.335754  79.58385  
102  512  -28.840424  -44.85022  53.32272  
103  592  11.795044  -21.595398  24.60659  
104  540  -1.3886108  -8.710236  8.820229  
105  529  -27.196198  -2.845337  27.344637  
106  593  -51.1286  -11.700043  52.450214  
107  537  -27.937225  -39.358795  48.265965  
108  532  -31.233948  -27.581207  41.668724  
109  596  -65.423004  9.638824  66.12924  
110  517  -44.882385  -13.067566  46.746014  
111  559  30.261536  47.3674  56.208817  
112  580  -54.60321  4.2729797  54.770145  
113  509  -59.81717  21.366516  63.518673  
114  585  -63.81906  -18.199402  66.36333  
115  580  -97.32672  -3.7757874  97.39993  
116  509  -218.32544  103.82593  241.7557  
117  587  -28.664886  138.89276  141.81987  
118  551  -210.63956  641.89685  675.5743  
119  521  6.142975  -241.92233  242.0003  
120  595  -57.19919  -102.4061  117.29772  
121  535  -6.995392  0.70181274  7.0305085  
122  533  44.394012  -4.856598  44.658875  
123  595  -26.166626  -18.601288  32.10452  
124  517  -23.361176  13.085907  26.776585  
125  533  65.18233  0.010864258  65.18233  
126  594  -60.832855  -33.508575  69.45114  
127  517  -38.679382  -38.96216  54.901226  
128  559  -3.9380493  -25.540802  25.842617  
129  583  -12.494629  1.7501526  12.616608  
130  510  -36.12787  20.64972  41.612904  
131  582  -44.367523  130.39679  137.73816  
132  556  -9.85083  -264.04736  264.23105  
133  517  16.738739  -107.61371  108.90774  
134  595  -120.21384  -128.57333  176.01837  
135  558  -65.53467  -64.93628  92.25786  
136  517  -65.5014  -6.2369385  65.79767  
137  596  -64.944275  -30.119019  71.58851  
138  532  -41.479218  -35.35379  54.501522  
139  537  -36.86296  -45.948883  58.908215  
140  594  -43.06691  -7.1466064  43.65584  
141  515  -30.76332  -38.112885  48.97932  
142  564  -35.245193  -65.711365  74.566795  
143  576  -39.062134  -26.542084  47.226395  
144  514  -59.994644  -54.713257  81.19666  
145  565  -31.810806  -40.54532  51.53494  
146  577  -40.17398  1.681427  40.209152  
147  508  -20.474808  -12.717346  24.102875  
148  586  -38.54918  -28.847656  48.147964  
149  551  27.933975  -158.69373  161.1335  
150  521  -39.03891  2.5934143  39.124958  
151  596  128.71033  111.78461  170.47623  
152  526  -95.87079  -61.827087  114.07803  
153  544  -50.71881  5.5067444  51.01688  
154  597  -50.024506  -12.71582  51.61534  
155  525  -46.335663  -33.19815  57.000973  
156  546  -49.076965  -31.272644  58.193874  
157  590  -30.599762  -54.515564  62.516335  
158  512  -54.495026  -20.426453  58.19749  
159  572  -43.03305  -15.190613  45.63549  
160  571  -15.864777  -41.3132  44.254623  
161  511  -57.918045  -12.974274  59.353447  
162  590  -76.57286  -9.450439  77.15383  
163  571  -70.984344  -29.97522  77.05382  
164  511  -117.81467  -38.714905  124.01266  
165  592  -35.151062  29.700745  46.018818  
166  544  -8.772888  20.908966  22.67484  
167  526  48.445618  -76.582275  90.6191  
168  596  4.1670227  -0.95306396  4.274624  
169  520  -92.96942  -103.15784  138.8699  
170  551  -50.361618  -51.182922  71.80518  
171  586  -11.003441  -17.319153  20.518986  
172  510  -17.750137  -34.386475  38.697506  
173  552  -34.464874  -21.351624  40.54281  
174  586  5.5712814  -15.405762  16.382206  
175  509  -82.481735  -35.101746  89.64022  
176  577  -59.82228  -71.836426  93.48357  
177  562  -57.06086  -63.306396  85.227  
178  513  -68.337425  -48.81494  83.98156  
179  595  -20.504791  -18.54425  27.646622  
180  536  -14.537872  -53.54889  55.487236  
181  532  -48.205353  -32.261536  58.004852  
182  595  288.635  245.19022  378.71942  
183  536  -43.722046  -71.08124  83.45154  
184  533  -148.13463  3.3162842  148.17174  
185  596  -61.68434  -81.11578  101.90549  
186  516  -91.30979  -21.072449  93.7098  
187  560  -52.565838  -32.304382  61.698788  
188  582  -36.78246  -82.201294  90.05555  
189  508  -103.69231  -33.548767  108.98447  
190  583  -60.555725  -80.48279  100.71978  
191  557  -51.505  -45.153748  68.495445  
192  509  -82.36128  -67.17694  106.28322  
193  583  -70.29363  -59.20038  91.90147  
194  556  -139.9678  43.971252  146.71216  
195  517  -156.99193  -127.844604  202.46162  
196  596  -176.63359  -71.04346  190.38539  
197  531  -104.19188  -78.89227  130.69023  
198  540  -160.0942  -140.6181  213.0812  
199  592  -353.7333  -159.13672  387.8811  
200  513  -328.18307  134.43414  354.65005  
201  565  -901.8678  107.75427  908.28217  
202  592  892.2372  -241.04889  924.225  
203  512  175.64677  -102.34619  203.28928  
204  565  74.215614  70.4111  102.30191  
205  576  110.57499  57.99652  124.861626  
206  509  42.308857  -51.547974  66.68758  
207  587  21.8164  -43.274963  48.463158  
208  552  43.542988  22.439514  48.984932  
209  520  -41.613415  -140.28467  146.32657  
210  598  48.117115  -18.214539  51.44926  
211  551  46.59629  -47.15924  66.296364  
212  520  12.161816  16.4693  20.473095  
213  597  17.406357  -75.10492  77.0956  
214  527  -9.920666  -11.287415  15.027486  
215  544  232.2939  -168.86908  287.18848  
216  591  35.28958  -70.01959  78.409805  
217  513  -46.978302  -165.01892  171.57565  
218  570  -35.354164  -45.6037  57.70281  
219  571  -71.625565  -37.987488  81.075714  
220  511  8.824318  -41.563965  42.49037  
221  571  14.941956  -63.73352  65.46162  
222  571  4.370407  -44.69928  44.912426  
223  511  -25.95163  -54.236694  60.12575  
224  590  -33.343452  -22.165344  40.038586  
225  545  -42.053635  -65.36981  77.72851  
226  526  -19.54699  -41.06665  45.481365  
227  597  -36.79014  -45.09955  58.20209  
228  522  8.496857  -90.8465  91.24298  
229  550  -24.06549  -52.250244  57.52596  
230  587  -48.96653  -39.391052  62.84406  
231  522  23.467972  -53.91388  58.800102  
232  551  63.44565  -35.49359  72.699005  
233  586  -115.23302  -33.262573  119.937675  
234  511  -102.354324  74.06119  126.3387  
235  575  -49.93689  -183.9278  190.58627  
236  567  -60.304367  -63.493042  87.567024  
237  513  -43.25255  -66.631165  79.43862  
238  593  -32.448624  -57.271362  65.824936  
239  540  -13.2595215  -63.440613  64.81147  
240  512  -5.6059723  -77.65503  77.85712  
241  593  -53.87793  -108.75525  121.369415  
242  540  -122.40921  -49.29428  131.9619  
243  530  -54.288208  -67.470825  86.59978  
244  598  -74.9955  -58.935852  95.38218  
245  518  -52.003098  -33.87961  62.065693  
246  555  -6.5630493  -27.473755  28.246784  
247  585  34.482162  -173.74408  177.1328  
248  509  -63.815308  -63.783234  90.2258  
249  578  -95.91405  -98.2507  137.30516  
250  585  60.964737  -51.628784  79.88886  
251  509  -54.961258  -59.232605  80.80372  
252  579  23.699127  -140.319  142.30626  
253  562  13.1978  -75.19049  76.33997  
254  515  16.214859  -71.59372  73.40697  
255  595  -24.730988  -94.412415  97.59778  
256  535  -33.053116  -148.83997  152.46588  
257  534  -95.92067  -130.19968  161.71806  
258  595  -139.18251  -87.68982  164.50311  
259  515  -4.160446  -51.64853  51.815826  
260  555  -47.621826  -119.535126  128.672  
261  585  -48.25293  -72.69571  87.25257  
262  509  36.2054  -86.2388  93.53054  
263  579  2.611084  -155.96872  155.99059  
264  561  -153.34015  -36.593475  157.64607  
265  515  -203.33511  327.38464  385.39053  
266  595  10.969025  -361.97614  362.14227  
267  533  -164.77737  -374.4134  409.06842  
268  537  37.53076  -143.91559  148.7288  
269  595  38.050262  -200.50998  204.0884  
270  531  -227.14629  -22.191925  228.22777  
271  539  -104.72345  -164.24069  194.78708  
272  593  22.032562  -280.3267  281.1912  
273  512  -63.152634  -224.8324  233.53342  
274  568  63.693115  -443.35144  447.90323  
275  574  -91.046234  -453.70337  462.7485  
276  511  -168.03616  -442.85785  473.66574  
277  589  -1354.7535  -852.49854  1600.6595  
278  545  573.00464  -1419.9534  1531.2094  
279  510  -290.46472  -1207.0605  1241.5172  
280  591  -365.3648  -764.71423  847.5136  
281  545  212.40894  -1278.1183  1295.6481  
282  527  -1258.4746  -1989.2034  2353.8667  
283  596  -2407.3025  -902.75146  2571.005  
284  520  -1988.2322  -2508.982  3201.2588  
285  553  9042.16  13032.211  15861.879  
286  585  658.9396  1281.6375  1441.1093  
287  508  -783.3251  1673.4242  1847.6869  
288  556  120.37021  1614.3018  1618.7832  
289  584  312.44995  270.08035  412.99924  
290  510  -227.60028  586.63934  629.24365  
291  582  69.441315  749.20844  752.4197  
292  557  1075.9913  -366.94354  1136.84  
293  517  109.42578  1544.2013  1548.0736  
294  596  302.90427  909.1617  958.2932  
295  531  179.75107  535.1949  564.57416  
296  540  251.57791  454.20004  519.2197  
297  592  237.99063  510.46445  563.2171  
298  529  419.8082  333.46967  536.1352  
299  542  89.713135  261.3109  276.28217  
300  592  147.49664  328.59317  360.17874  
301  513  85.032776  184.81726  203.44038  
302  569  6.376587  87.033905  87.26718  
303  573  101.81625  328.19662  343.62708  
304  511  118.99017  178.1481  214.23213  
305  589  -17.052734  171.56271  172.40813  
306  546  -33.648285  282.09573  284.0954  
307  525  118.74164  207.93335  239.44905  
308  591  60.671997  54.825592  81.77369  
309  545  33.292908  110.79904  115.692894  
310  524  136.81201  107.31854  173.88156  
311  596  -8.430878  44.27466  45.070225  
312  522  -46.547546  158.17032  164.8773  
313  551  0.8934326  189.95236  189.95445  
314  586  42.878723  85.147064  95.33419  
315  509  -5.4029846  183.79776  183.87715  
316  577  24.898071  -50.169617  56.00807  
317  586  5.873291  -12.540344  13.847591  
318  509  87.043304  47.788452  99.298904  
319  576  11.633118  92.7522  93.47887  
320  565  -8.628815  17.536743  19.544662  
321  514  7.2846375  114.93988  115.170494  
322  593  104.462585  155.04636  186.95401  
323  541  96.21991  62.22357  114.58641  
324  530  28.332092  33.237335  43.67411  
325  596  35.122314  75.780334  83.523865  
326  519  2.7115479  33.634766  33.74389  
327  529  -41.408234  48.17337  63.52413  
328  597  12.44455  109.794495  110.497505  
329  520  82.79291  80.38861  115.399284  
330  553  -14.078461  49.99063  51.93521  
331  587  -34.435608  143.13339  147.21745  
332  508  34.00482  49.88623  60.373535  
333  577  -5.9484863  120.30524  120.45221  
334  565  17.03537  82.05066  83.800446  
335  512  203.11661  46.55603  208.38383  
336  574  -67.44266  45.12326  81.145676  
337  566  -59.760803  88.82538  107.057465  
338  512  30.580627  65.8593  72.61282  
339  592  -19.831787  -28.9003  35.05035  
340  542  -39.205566  67.349014  77.92924  
341  527  64.48718  6.175415  64.78219  
342  597  22.040558  5.8984222  22.81617  
343  521  -18.663177  93.79823  95.63693  
344  550  31.105957  39.90735  50.59819  
345  587  -74.94064  45.994705  87.929596  
346  522  -86.98941  44.688416  97.79679  
347  551  -40.946747  22.65001  46.793793  
348  587  -374.85858  26.090714  375.76544  
349  510  665.2811  -77.46912  669.7764  
350  575  277.85757  -16.406906  278.34155  
351  566  112.42267  -50.465103  123.2298  
352  512  9.324585  -56.58644  57.34957  
353  592  142.43817  100.48868  174.31755  
354  541  101.58206  18.067032  103.17622  
355  529  20.284515  -2.1307373  20.396118  
356  593  81.469604  103.629166  131.8192  
357  540  3.8008728  -32.139404  32.363373  
358  530  -41.283203  -9.515305  42.365597  
359  596  -33.863647  35.55397  49.10022  
360  517  13.175568  105.77933  106.596725  
361  556  -120.681946  -36.488297  126.07747  
362  582  29.99884  119.14894  122.86741  
363  509  108.14227  3.1987762  108.189575  
364  582  29.432129  -119.77135  123.33461  
365  582  79.22754  113.96715  138.80026  
366  509  145.3825  -23.208313  147.2233  
367  582  135.37811  -180.67912  225.77019  
368  556  901.6795  -1424.2882  1685.7113  
369  518  -46.334045  323.794  327.09235  
370  596  113.40857  91.0734  145.45056  
371  530  79.88721  4.156273  79.995255  
372  542  22.552368  49.462593  54.36136  
373  592  55.728394  8.424789  56.361607  
374  512  -28.60376  -0.2525711  28.604874  
375  543  -52.925964  -23.430817  57.880573  
376  592  165.1095  -61.429306  176.1667  
377  512  31.466553  6.9225235  32.21902  
378  570  53.01349  41.273308  67.185684  
379  571  49.829285  3.7513123  49.970287  
380  512  -16.09259  18.771568  24.725357  
381  591  -24.850128  151.51411  153.53845  
382  544  64.78949  -98.77955  118.131615  
383  527  97.062195  16.667458  98.48286  
384  592  -36.772583  -66.65929  76.12939  
385  540  24.343384  -64.3265  68.778625  
386  529  -80.95627  11.802956  81.81214  
387  596  -14.75415  38.554665  41.281315  
388  518  -10.468018  -32.35939  34.010433  
389  556  28.137207  -39.700867  48.660675  
390  582  23.447693  0.9047775  23.465143  
391  508  30.647705  -41.277157  51.410946  
392  583  -39.77484  -26.769981  47.944447  
393  557  -39.035156  53.86647  66.52323  
394  507  13.443848  15.557106  20.561142  
395  584  -13.120422  13.04668  18.503008  
396  556  27.60431  43.17283  51.24345  
397  517  79.955444  -30.409386  85.54299  
398  595  -20.06781  -33.81028  39.317326  
399  529  64.138306  -123.55079  139.20676  
400  541  9.0  -0.41914117  9.009755  
401  592  64.17212  122.709465  138.47626  
402  512  -19.768738  32.668438  38.184155  
403  569  78.98956  28.053198  83.82323  
404  590  27.41681  -44.086823  51.91656  
405  512  -12.35791  -15.128256  19.534126  
406  570  13.847473  -17.208046  22.087765  
407  571  -39.57953  -55.099686  67.841835  
408  510  -39.348633  26.222057  47.285423  
409  591  30.776245  40.243755  50.662975  
410  545  24.537292  -1.3859787  24.576405  
411  527  26.365479  36.993843  45.427776  
412  597  -9.918579  31.627415  33.146214  
413  546  -14.17041  -39.317966  41.793575  
414  526  -80.664  -12.881142  81.68601  
415  596  23.950012  63.066444  67.460945  
416  521  -36.838074  65.73428  75.35277  
417  548  97.464966  -18.3292  99.173485  
418  589  64.364075  97.81298  117.090195  
419  510  -24.563507  -153.6352  155.58644  
420  574  -16.468018  -20.546196  26.331385  
421  567  50.435608  -4.194565  50.609734  
422  511  53.04431  -42.820244  68.170906  
423  573  31.634521  -8.052513  32.643314  
424  568  165.77386  59.728218  176.20566  
425  512  -52.33539  22.207458  56.852123  
426  592  -27.492523  -0.87836456  27.506552  
427  542  56.346924  -9.812866  57.195  
428  527  23.210632  -50.742264  55.798843  
429  597  79.639404  -5.004669  79.7965  
430  522  113.85742  -92.30794  146.57512  
431  549  -44.809357  -324.32306  327.4039  
432  597  898.5649  1425.0574  1684.698  
433  523  134.00421  179.71758  224.17746  
434  547  144.58624  20.07634  145.97342  
435  589  78.65399  -116.06894  140.20859  
436  510  29.674255  119.03079  122.67392  
437  571  107.599304  -4.1082916  107.677704  
438  570  29.111572  -120.39807  123.867584  
439  510  -120.8988  34.86052  125.82439  
440  591  12.877594  -107.348434  108.11808  
441  544  -34.852783  -37.033356  50.854557  
442  510  -40.969666  7.6740875  41.682194  
443  590  3.8347778  30.36621  30.60739  
